
Integration time [ms]:   0.300
Averaging Nr. [scans]: 1
Smoothing Nr. [pixels]: 1
Data measured with spectrometer [name]: 1906252U1
Wave   ;Sample   ;Dark     ;Reference;Absorbance
[nm]   ;[counts] ;[counts] ;[counts] ;[A.U]

 161.30;  288.628;  271.207;  271.637; 0.00000
 161.90;  265.657;  265.524;  261.712; 0.00000
 162.51;  252.694;  259.038;  260.433; 5.00000
 163.11;  253.106;  265.693;  251.834; 0.00000
 163.71;  258.403;  276.696;  266.803; 0.00000
 164.31;  264.741;  294.270;  273.488; 0.00000
 164.91;  267.005;  288.393;  287.410; 0.00000
 165.52;  270.871;  277.299;  279.261; 5.00000
 166.12;  271.017;  271.979;  273.718; 5.00000
 166.72;  266.726;  272.971;  259.755; 0.00000
 167.32;  260.673;  271.656;  271.040; 0.00000
 167.93;  256.165;  261.266;  267.518; 5.00000
 168.53;  244.936;  254.112;  260.296; 5.00000
 169.13;  260.226;  264.427;  257.261; 0.00000
 169.73;  261.317;  271.677;  266.351; 0.00000
 170.33;  294.439;  291.614;  320.561; 1.01059
 170.94;  304.788;  317.756;  347.746; 5.00000
 171.54;  334.171;  335.278;  387.239; 5.00000
 172.14;  340.794;  338.926;  375.538; 1.29218
 172.74;  345.117;  324.358;  373.181; 0.37142
 173.34;  340.497;  319.589;  355.569; 0.23575
 173.95;  337.855;  309.596;  343.923; 0.08447
 174.55;  339.493;  318.289;  355.228; 0.24105
 175.15;  337.086;  320.689;  367.155; 0.45237
 175.75;  344.802;  322.370;  380.195; 0.41124
 176.35;  350.624;  332.415;  382.036; 0.43538
 176.95;  355.805;  327.740;  392.907; 0.36586
 177.56;  356.583;  327.608;  398.355; 0.38768
 178.16;  353.538;  316.738;  399.298; 0.35092
 178.76;  352.410;  316.306;  398.487; 0.35722
 179.36;  347.281;  310.874;  401.343; 0.39531
 179.96;  340.428;  304.800;  395.813; 0.40731
 180.56;  348.910;  308.938;  392.969; 0.32268
 181.17;  357.370;  318.009;  403.448; 0.33659
 181.77;  361.428;  318.897;  417.181; 0.36377
 182.37;  364.696;  306.653;  404.111; 0.22507
 182.97;  361.374;  319.309;  413.789; 0.35143
 183.57;  379.201;  323.525;  427.944; 0.27311
 184.17;  394.702;  336.736;  473.104; 0.37154
 184.78;  421.524;  316.624;  484.587; 0.20444
 185.38;  428.431;  315.012;  504.833; 0.22366
 185.98;  447.553;  315.783;  504.638; 0.15631
 186.58;  459.692;  316.598;  510.449; 0.13185
 187.18;  472.248;  313.002;  491.678; 0.05000
 187.78;  491.636;  324.256;  526.070; 0.08125
 188.38;  492.727;  331.840;  541.159; 0.11429
 188.98;  495.434;  337.804;  574.199; 0.17600
 189.59;  477.114;  332.575;  567.529; 0.21100
 190.19;  476.984;  326.870;  580.708; 0.22814
 190.79;  469.539;  326.914;  573.939; 0.23855
 191.39;  473.205;  317.159;  564.285; 0.19967
 191.99;  473.630;  322.498;  545.363; 0.16868
 192.59;  502.204;  317.307;  539.929; 0.08064
 193.19;  481.970;  313.765;  525.712; 0.10039
 193.79;  476.199;  325.164;  530.280; 0.13292
 194.39;  447.600;  328.250;  517.658; 0.20058
 195.00;  442.100;  327.216;  511.139; 0.20438
 195.60;  412.017;  305.566;  480.732; 0.21630
 196.20;  391.079;  304.088;  469.473; 0.27902
 196.80;  390.935;  305.278;  453.989; 0.23958
 197.40;  402.789;  313.686;  455.186; 0.20087
 198.00;  395.050;  320.693;  452.457; 0.24847
 198.60;  369.880;  317.270;  442.943; 0.37817
 199.20;  343.462;  312.435;  427.513; 0.56926
 199.80;  343.718;  303.957;  416.753; 0.45284
 200.40;  338.496;  299.492;  396.868; 0.39734
 201.00;  340.049;  293.841;  371.434; 0.22511
 201.60;  318.679;  292.845;  340.403; 0.26502
 202.21;  324.181;  298.995;  352.240; 0.32512
 202.81;  311.837;  303.760;  367.883; 0.89977
 203.41;  320.555;  301.801;  377.921; 0.60841
 204.01;  312.578;  296.447;  373.611; 0.67976
 204.61;  327.440;  287.965;  374.799; 0.34237
 205.21;  323.317;  280.528;  391.328; 0.41321
 205.81;  330.563;  276.000;  394.567; 0.33706
 206.41;  327.656;  281.190;  389.667; 0.36820
 207.01;  335.157;  291.585;  373.516; 0.27424
 207.61;  319.521;  290.832;  349.221; 0.30862
 208.21;  308.728;  294.007;  340.088; 0.49559
 208.81;  300.688;  285.376;  350.048; 0.62570
 209.41;  305.573;  292.971;  355.294; 0.69419
 210.01;  301.762;  286.985;  361.835; 0.70459
 210.61;  313.590;  290.534;  351.990; 0.42578
 211.21;  307.835;  293.399;  356.219; 0.63866
 211.81;  318.896;  300.157;  352.258; 0.44410
 212.41;  305.483;  301.896;  344.513; 1.07485
 213.01;  322.575;  296.332;  351.625; 0.32365
 213.61;  311.285;  285.263;  357.339; 0.44244
 214.21;  317.038;  282.939;  368.411; 0.39909
 214.81;  298.693;  278.704;  361.387; 0.61662
 215.41;  295.622;  282.466;  362.645; 0.78495
 216.01;  292.830;  278.247;  362.189; 0.76013
 216.61;  290.758;  287.920;  357.792; 1.39141
 217.21;  297.013;  290.599;  357.391; 1.01761
 217.81;  297.761;  297.221;  367.800; 2.11603
 218.41;  307.045;  301.628;  379.081; 1.15528
 219.01;  310.125;  307.801;  388.505; 1.54078
 219.61;  299.526;  301.739;  384.906; 5.00000
 220.21;  286.811;  297.568;  378.507; 5.00000
 220.81;  299.023;  283.737;  372.713; 0.76498
 221.41;  324.667;  284.091;  376.024; 0.35520
 222.01;  329.697;  280.426;  372.049; 0.26941
 222.61;  323.421;  298.953;  367.451; 0.44709
 223.21;  301.713;  301.813;  357.103; 5.00000
 223.81;  312.293;  301.952;  360.676; 0.75423
 224.41;  310.936;  281.875;  343.618; 0.32728
 225.01;  304.247;  269.317;  340.250; 0.30765
 225.61;  306.347;  274.108;  341.033; 0.31721
 226.21;  301.214;  273.112;  349.918; 0.43666
 226.81;  304.466;  286.490;  349.175; 0.54249
 227.41;  309.240;  284.059;  344.282; 0.37868
 228.01;  310.879;  302.172;  351.241; 0.75096
 228.61;  322.798;  306.727;  360.474; 0.52430
 229.21;  312.690;  303.825;  362.700; 0.82225
 229.81;  309.769;  308.998;  372.791; 1.91752
 230.41;  306.040;  299.055;  383.396; 1.08186
 231.01;  315.246;  300.808;  405.942; 0.86222
 231.61;  315.398;  287.307;  401.095; 0.60754
 232.21;  322.139;  300.328;  383.489; 0.58125
 232.81;  310.925;  296.307;  370.928; 0.70797
 233.41;  320.660;  302.578;  372.995; 0.59043
 234.00;  311.235;  298.240;  379.918; 0.79831
 234.60;  315.599;  290.487;  363.623; 0.46425
 235.20;  319.235;  295.152;  359.264; 0.42522
 235.80;  319.739;  295.330;  365.432; 0.45818
 236.40;  315.692;  302.765;  379.044; 0.77091
 237.00;  312.127;  303.584;  384.824; 0.97814
 237.60;  322.939;  294.000;  377.651; 0.46099
 238.20;  327.839;  295.121;  389.214; 0.45877
 238.80;  302.644;  274.112;  389.668; 0.60745
 239.40;  300.067;  279.177;  403.402; 0.77427
 240.00;  306.637;  284.599;  402.640; 0.72885
 240.59;  335.622;  298.133;  401.312; 0.43969
 241.19;  345.381;  297.989;  399.745; 0.33186
 241.79;  341.021;  288.710;  384.715; 0.26370
 242.39;  334.889;  292.222;  383.909; 0.33222
 242.99;  325.095;  286.642;  375.121; 0.36191
 243.59;  314.386;  289.230;  388.763; 0.59732
 244.19;  301.527;  286.160;  385.560; 0.81082
 244.79;  290.637;  287.511;  384.652; 1.49240
 245.39;  302.209;  287.293;  395.554; 0.86083
 245.98;  304.773;  273.053;  391.453; 0.57202
 246.58;  300.599;  274.487;  389.290; 0.64311
 247.18;  308.994;  285.342;  384.364; 0.62185
 247.78;  317.402;  295.696;  398.758; 0.67651
 248.38;  342.144;  288.656;  421.162; 0.39397
 248.98;  332.280;  277.356;  419.988; 0.41445
 249.58;  322.631;  265.673;  430.671; 0.46193
 250.17;  314.820;  275.285;  426.842; 0.58359
 250.77;  316.277;  283.143;  431.967; 0.65240
 251.37;  320.382;  286.929;  425.089; 0.61594
 251.97;  318.779;  270.293;  429.805; 0.51718
 252.57;  322.203;  265.298;  436.882; 0.47933
 253.17;  312.479;  272.929;  449.172; 0.64896
 253.77;  316.928;  284.186;  466.282; 0.74519
 254.36;  316.440;  295.474;  468.774; 0.91728
 254.96;  331.563;  295.333;  480.567; 0.70865
 255.56;  322.298;  288.604;  484.301; 0.76403
 256.16;  324.185;  278.462;  506.509; 0.69789
 256.76;  328.783;  277.524;  496.109; 0.62985
 257.36;  339.617;  276.735;  508.603; 0.56671
 257.95;  326.399;  264.992;  503.713; 0.58967
 258.55;  315.763;  264.239;  518.084; 0.69256
 259.15;  311.138;  260.564;  510.454; 0.69382
 259.75;  312.013;  269.345;  523.998; 0.77585
 260.35;  318.961;  267.461;  538.318; 0.72093
 260.94;  310.374;  268.819;  539.764; 0.81425
 261.54;  319.390;  275.530;  547.771; 0.79289
 262.14;  320.404;  279.723;  553.422; 0.82789
 262.74;  352.170;  296.084;  592.169; 0.72257
 263.34;  350.931;  285.302;  604.600; 0.68710
 263.93;  341.872;  271.414;  619.201; 0.69338
 264.53;  332.120;  269.158;  628.783; 0.75677
 265.13;  336.220;  270.950;  628.566; 0.73870
 265.73;  344.794;  275.426;  648.466; 0.73059
 266.33;  346.405;  278.566;  678.397; 0.77040
 266.92;  330.026;  275.029;  689.673; 0.87733
 267.52;  338.742;  279.954;  705.726; 0.85989
 268.12;  336.940;  273.264;  717.281; 0.84342
 268.72;  359.820;  281.951;  749.175; 0.77816
 269.31;  364.479;  293.596;  782.505; 0.83868
 269.91;  350.671;  296.813;  783.686; 0.95617
 270.51;  353.422;  298.884;  823.747; 0.98335
 271.11;  348.371;  296.018;  844.685; 1.02037
 271.70;  343.359;  281.274;  877.686; 0.98256
 272.30;  340.241;  270.568;  887.924; 0.94747
 272.90;  349.402;  264.784;  909.412; 0.88184
 273.50;  369.530;  274.785;  916.521; 0.83080
 274.09;  364.202;  285.359;  947.539; 0.92421
 274.69;  374.667;  293.425;  961.690; 0.91517
 275.29;  370.694;  297.126; 1011.041; 0.98696
 275.89;  378.515;  301.162; 1057.168; 0.99005
 276.48;  375.735;  306.441; 1108.365; 1.06344
 277.08;  400.379;  303.217; 1149.330; 0.93993
 277.68;  401.635;  300.562; 1156.928; 0.92803
 278.28;  394.765;  297.934; 1188.748; 0.96377
 278.87;  393.560;  305.120; 1219.213; 1.01434
 279.47;  400.381;  316.402; 1279.019; 1.05928
 280.07;  420.568;  311.564; 1306.537; 0.96037
 280.66;  436.498;  305.599; 1329.806; 0.89345
 281.26;  468.303;  299.502; 1356.605; 0.79674
 281.86;  471.498;  299.353; 1408.460; 0.80908
 282.46;  475.699;  289.111; 1464.667; 0.79936
 283.05;  485.885;  270.001; 1525.842; 0.76471
 283.65;  510.959;  269.267; 1577.248; 0.73334
 284.25;  517.706;  276.537; 1628.707; 0.74871
 284.84;  513.464;  297.639; 1660.819; 0.80045
 285.44;  535.685;  304.585; 1722.349; 0.78780
 286.04;  554.306;  306.626; 1767.304; 0.77066
 286.63;  587.535;  299.604; 1827.551; 0.72482
 287.23;  588.237;  285.934; 1878.582; 0.72168
 287.83;  607.641;  285.987; 1956.635; 0.71550
 288.42;  613.814;  282.947; 2012.456; 0.71827
 289.02;  642.704;  281.018; 2081.351; 0.69702
 289.62;  646.362;  274.153; 2105.373; 0.69195
 290.21;  690.537;  278.965; 2173.882; 0.66314
 290.81;  716.507;  296.139; 2171.832; 0.64953
 291.41;  739.285;  301.675; 2217.279; 0.64122
 292.00;  733.929;  287.695; 2273.257; 0.64832
 292.60;  740.926;  266.816; 2355.570; 0.64401
 293.20;  809.967;  269.053; 2441.953; 0.60391
 293.79;  818.200;  275.331; 2498.541; 0.61229
 294.39;  832.775;  284.326; 2544.463; 0.61500
 294.99;  816.419;  280.435; 2588.095; 0.63402
 295.58;  863.638;  284.687; 2619.961; 0.60570
 296.18;  903.250;  271.100; 2672.236; 0.57960
 296.78;  942.871;  267.474; 2741.524; 0.56385
 297.37;  969.918;  256.039; 2819.912; 0.55527
 297.97;  995.450;  255.858; 2927.442; 0.55778
 298.57; 1021.895;  262.727; 2989.557; 0.55532
 299.16; 1063.771;  278.359; 3083.789; 0.55290
 299.76; 1109.014;  281.775; 3176.366; 0.54396
 300.35; 1171.027;  281.214; 3269.362; 0.52610
 300.95; 1217.787;  278.404; 3324.462; 0.51090
 301.55; 1244.816;  287.229; 3346.846; 0.50449
 302.14; 1262.326;  278.314; 3431.366; 0.50573
 302.74; 1273.157;  277.164; 3537.862; 0.51505
 303.33; 1308.212;  277.506; 3665.575; 0.51682
 303.93; 1333.579;  284.053; 3763.621; 0.52053
 304.53; 1388.695;  290.889; 3809.743; 0.50588
 305.12; 1423.036;  285.666; 3889.067; 0.50081
 305.72; 1462.722;  304.345; 3962.749; 0.49944
 306.31; 1509.458;  292.556; 4062.826; 0.49112
 306.91; 1533.869;  290.122; 4183.574; 0.49560
 307.51; 1597.036;  280.000; 4278.734; 0.48232
 308.10; 1655.021;  295.710; 4394.048; 0.47929
 308.70; 1732.032;  291.190; 4468.751; 0.46231
 309.29; 1785.082;  287.634; 4547.826; 0.45408
 309.89; 1808.950;  264.902; 4638.675; 0.45220
 310.48; 1864.728;  273.673; 4739.754; 0.44824
 311.08; 1891.754;  268.620; 4876.118; 0.45311
 311.68; 1952.998;  273.221; 4959.384; 0.44557
 312.27; 2000.899;  278.703; 5074.278; 0.44476
 312.87; 2023.148;  271.869; 5225.848; 0.45160
 313.46; 2078.311;  276.691; 5385.013; 0.45262
 314.06; 2144.523;  276.193; 5529.885; 0.44901
 314.65; 2243.205;  282.238; 5632.559; 0.43591
 315.25; 2288.910;  283.262; 5774.255; 0.43740
 315.85; 2316.198;  277.637; 5914.876; 0.44174
 316.44; 2380.593;  287.913; 6071.938; 0.44153
 317.04; 2453.982;  295.255; 6216.984; 0.43825
 317.63; 2545.993;  310.823; 6400.341; 0.43527
 318.23; 2596.926;  298.737; 6546.296; 0.43432
 318.82; 2684.192;  293.221; 6674.883; 0.42636
 319.42; 2753.862;  273.276; 6781.545; 0.41891
 320.01; 2825.943;  280.055; 6929.646; 0.41696
 320.61; 2857.637;  290.511; 7164.652; 0.42777
 321.20; 2929.958;  285.758; 7272.939; 0.42201
 321.80; 3016.050;  292.860; 7497.718; 0.42255
 322.39; 3108.835;  275.154; 7636.540; 0.41461
 322.99; 3122.842;  275.755; 7857.556; 0.42537
 323.58; 3191.177;  286.597; 7977.531; 0.42290
 324.18; 3257.671;  287.901; 8124.673; 0.42141
 324.77; 3363.332;  292.485; 8318.013; 0.41722
 325.37; 3407.817;  278.984; 8442.167; 0.41648
 325.96; 3501.285;  276.253; 8588.958; 0.41121
 326.56; 3599.419;  298.768; 8771.095; 0.40940
 327.15; 3681.760;  300.036; 8947.778; 0.40776
 327.75; 3698.182;  300.925; 9129.536; 0.41476
 328.34; 3775.834;  272.723; 9291.838; 0.41071
 328.94; 3869.914;  266.072; 9447.905; 0.40616
 329.53; 3936.219;  277.765; 9658.876; 0.40896
 330.13; 3990.789;  293.098; 9872.460; 0.41341
 330.72; 3994.867;  297.428;10112.576; 0.42400
 331.32; 4116.355;  296.807;10347.750; 0.42019
 331.91; 4247.680;  286.021;10578.045; 0.41462
 332.51; 4424.431;  290.846;10832.428; 0.40658
 333.10; 4525.026;  280.941;11112.686; 0.40691
 333.69; 4591.537;  268.720;11343.870; 0.40858
 334.29; 4596.304;  259.020;11372.294; 0.40862
 334.88; 4612.244;  263.526;11404.218; 0.40855
 335.48; 4602.193;  274.151;11347.513; 0.40799
 336.07; 4617.371;  277.361;11521.065; 0.41342
 336.67; 4655.736;  271.793;11561.792; 0.41083
 337.26; 4709.350;  270.478;11724.744; 0.41169
 337.86; 4801.042;  274.661;11795.073; 0.40572
 338.45; 4838.872;  285.081;11996.201; 0.41023
 339.04; 4903.388;  280.248;12122.714; 0.40851
 339.64; 5019.830;  279.247;12324.855; 0.40500
 340.23; 5080.851;  276.541;12444.594; 0.40359
 340.83; 5136.590;  283.446;12579.002; 0.40373
 341.42; 5093.063;  284.034;12728.085; 0.41290
 342.02; 5147.374;  280.810;12860.717; 0.41245
 342.61; 5152.778;  285.029;12994.842; 0.41681
 343.20; 5258.942;  280.703;13173.363; 0.41327
 343.80; 5314.117;  275.024;13326.514; 0.41331
 344.39; 5376.729;  277.525;13574.777; 0.41626
 344.99; 5395.869;  284.701;13698.586; 0.41903
 345.58; 5494.948;  281.629;13941.331; 0.41833
 346.17; 5617.903;  272.425;14086.941; 0.41235
 346.77; 5726.807;  263.601;14425.499; 0.41367
 347.36; 5815.056;  267.766;14640.403; 0.41346
 347.96; 5856.397;  271.456;14918.073; 0.41872
 348.55; 5940.057;  272.039;15018.413; 0.41525
 349.14; 6019.902;  269.152;15148.264; 0.41285
 349.74; 6122.953;  282.193;15379.635; 0.41243
 350.33; 6250.607;  292.264;15619.281; 0.41033
 350.92; 6335.735;  292.029;15990.758; 0.41456
 351.52; 6385.684;  276.988;16197.719; 0.41601
 352.11; 6417.665;  277.642;16449.038; 0.42058
 352.70; 6495.428;  293.221;16652.467; 0.42122
 353.30; 6612.326;  299.069;16923.354; 0.42049
 353.89; 6696.125;  289.556;17199.826; 0.42153
 354.49; 6745.748;  295.537;17471.125; 0.42534
 355.08; 6866.536;  303.789;17648.240; 0.42207
 355.67; 6935.176;  306.509;17850.877; 0.42271
 356.27; 7061.055;  292.678;18013.082; 0.41799
 356.86; 7081.021;  288.376;18230.048; 0.42182
 357.45; 7193.970;  297.756;18507.331; 0.42169
 358.05; 7308.930;  297.214;18684.613; 0.41870
 358.64; 7430.946;  292.504;18894.298; 0.41595
 359.23; 7528.803;  289.300;19081.825; 0.41428
 359.83; 7587.366;  289.121;19433.380; 0.41882
 360.42; 7659.576;  293.174;19722.600; 0.42120
 361.01; 7702.807;  287.355;19981.487; 0.42420
 361.61; 7739.206;  287.502;20183.522; 0.42651
 362.20; 7809.738;  294.987;20496.718; 0.42947
 362.79; 7883.963;  302.910;20634.303; 0.42844
 363.38; 7967.159;  301.613;20815.514; 0.42751
 363.98; 8064.376;  289.171;20943.715; 0.42430
 364.57; 8164.145;  277.744;21176.149; 0.42323
 365.16; 8240.138;  288.573;21351.502; 0.42307
 365.76; 8275.246;  293.720;21537.287; 0.42514
 366.35; 8339.188;  294.920;21731.542; 0.42567
 366.94; 8452.124;  286.459;21913.791; 0.42301
 367.53; 8523.794;  286.426;22067.466; 0.42229
 368.13; 8606.472;  291.994;22246.489; 0.42169
 368.72; 8561.271;  285.482;22413.295; 0.42713
 369.31; 8636.663;  292.281;22597.374; 0.42701
 369.91; 8650.821;  283.382;22746.877; 0.42888
 370.50; 8791.699;  291.699;22820.059; 0.42331
 371.09; 8834.577;  278.017;22946.909; 0.42313
 371.68; 8933.331;  286.967;23106.324; 0.42147
 372.28; 8956.914;  294.984;23340.584; 0.42497
 372.87; 9032.493;  297.367;23443.502; 0.42321
 373.46; 9079.931;  297.723;23614.255; 0.42406
 374.05; 9183.846;  287.889;23758.158; 0.42133
 374.65; 9198.511;  290.440;23950.173; 0.42423
 375.24; 9187.018;  272.918;24146.349; 0.42784
 375.83; 9243.698;  275.848;24331.370; 0.42853
 376.42; 9345.534;  273.516;24515.563; 0.42687
 377.02; 9484.472;  293.907;24527.502; 0.42108
 377.61; 9534.311;  288.112;24762.668; 0.42275
 378.20; 9634.442;  297.747;24944.118; 0.42156
 378.79; 9718.880;  297.015;25086.217; 0.42013
 379.38; 9821.783;  282.191;25204.109; 0.41705
 379.98; 9898.824;  267.243;25344.469; 0.41558
 380.57; 9971.075;  272.112;25606.751; 0.41699
 381.16;10002.099;  291.609;25727.129; 0.41820
 381.75;10083.455;  289.589;25767.151; 0.41520
 382.35;10118.566;  283.703;25937.612; 0.41639
 382.94;10247.320;  271.231;26182.039; 0.41452
 383.53;10372.378;  279.541;26558.760; 0.41560
 384.12;10545.928;  269.432;26865.627; 0.41297
 384.71;10655.659;  284.069;27028.687; 0.41139
 385.31;10754.505;  287.699;27353.893; 0.41261
 385.90;10896.707;  299.731;27598.110; 0.41095
 386.49;11044.604;  283.306;27919.987; 0.40962
 387.08;11067.564;  296.763;28085.602; 0.41162
 387.67;11206.888;  302.047;28384.267; 0.41081
 388.26;11275.033;  312.463;28670.094; 0.41276
 388.86;11445.032;  297.866;29041.131; 0.41137
 389.45;11497.843;  285.685;29324.329; 0.41329
 390.04;11679.662;  279.860;29566.863; 0.40978
 390.63;11905.754;  284.795;29878.048; 0.40595
 391.22;12095.066;  294.422;30097.179; 0.40235
 391.81;12175.822;  303.408;30368.117; 0.40352
 392.41;12308.122;  324.211;30517.642; 0.40131
 393.00;12421.156;  349.022;30747.606; 0.40107
 393.59;12552.803;  379.676;31111.212; 0.40218
 394.18;12715.439;  399.780;31505.223; 0.40238
 394.77;12846.360;  433.703;31930.599; 0.40440
 395.36;13084.936;  473.557;32244.356; 0.40127
 395.95;13154.717;  524.323;32561.017; 0.40423
 396.55;13277.928;  566.236;32856.406; 0.40487
 397.14;13428.454;  594.577;33298.717; 0.40624
 397.73;13670.008;  601.786;33627.642; 0.40264
 398.32;13917.202;  612.294;34204.404; 0.40223
 398.91;14107.062;  621.039;34614.988; 0.40152
 399.50;14318.579;  632.059;35200.379; 0.40239
 400.09;14548.117;  605.452;35675.306; 0.40059
 400.68;14812.616;  582.293;36366.134; 0.40047
 401.27;15044.484;  548.561;37014.694; 0.40064
 401.87;15382.719;  525.771;37604.957; 0.39720
 402.46;15724.249;  501.053;38119.893; 0.39290
 403.05;16046.086;  484.389;38675.942; 0.38991
 403.64;16338.962;  490.521;39240.769; 0.38829
 404.23;16647.983;  484.797;39841.080; 0.38649
 404.82;16884.277;  502.588;40438.695; 0.38701
 405.41;17141.758;  491.629;41140.816; 0.38763
 406.00;17408.323;  497.890;41752.976; 0.38732
 406.59;17777.583;  479.966;42383.807; 0.38427
 407.18;17997.233;  482.149;42943.385; 0.38458
 407.77;18172.557;  466.520;43500.038; 0.38569
 408.37;18343.166;  484.641;43973.019; 0.38653
 408.96;18558.663;  491.806;44465.898; 0.38631
 409.55;18782.723;  504.476;44970.283; 0.38609
 410.14;19007.280;  481.626;45459.452; 0.38522
 410.73;19300.305;  490.299;45905.805; 0.38282
 411.32;19567.254;  492.855;46441.730; 0.38182
 411.91;19879.127;  505.687;47060.216; 0.38076
 412.50;20082.573;  480.732;47624.639; 0.38113
 413.09;20274.714;  484.505;48110.411; 0.38139
 413.68;20439.584;  482.467;48573.257; 0.38196
 414.27;20674.245;  487.472;48936.919; 0.38022
 414.86;20900.978;  462.470;49236.309; 0.37774
 415.45;21057.112;  452.555;49687.411; 0.37831
 416.04;21191.465;  462.743;50083.734; 0.37909
 416.63;21349.675;  468.551;50542.275; 0.37986
 417.22;21406.425;  461.867;50754.683; 0.38043
 417.81;21509.235;  462.159;51068.477; 0.38101
 418.40;21577.110;  476.694;51393.675; 0.38257
 418.99;21768.981;  477.832;51737.830; 0.38158
 419.58;21876.912;  462.218;51969.382; 0.38116
 420.17;22025.935;  452.952;52248.392; 0.38038
 420.76;22077.727;  458.593;52499.836; 0.38151
 421.35;22191.659;  472.988;53005.769; 0.38360
 421.94;22208.062;  474.287;53203.501; 0.38492
 422.53;22287.879;  469.601;53402.299; 0.38490
 423.12;22234.427;  471.552;53493.823; 0.38674
 423.71;22306.159;  463.366;53670.857; 0.38666
 424.30;22379.835;  471.573;53819.883; 0.38651
 424.89;22424.632;  477.611;53888.037; 0.38625
 425.48;22335.322;  477.854;53974.356; 0.38873
 426.07;22241.704;  465.438;53940.695; 0.39017
 426.66;22188.873;  460.097;54040.507; 0.39197
 427.25;22190.825;  453.014;53995.096; 0.39148
 427.84;22133.464;  450.549;53912.043; 0.39192
 428.43;22191.867;  452.848;53711.442; 0.38915
 429.02;22193.650;  457.772;53797.552; 0.38987
 429.61;22095.901;  448.720;53826.107; 0.39196
 430.20;21876.920;  425.820;53758.443; 0.39554
 430.79;21681.721;  437.001;53531.580; 0.39780
 431.38;21595.367;  442.471;53315.543; 0.39786
 431.97;21394.616;  451.391;53001.434; 0.39953
 432.55;21175.192;  445.807;52690.011; 0.40145
 433.14;20988.927;  441.412;52704.411; 0.40544
 433.73;20902.271;  432.971;52655.054; 0.40675
 434.32;20774.512;  424.624;52606.263; 0.40896
 434.91;20650.654;  423.161;52233.737; 0.40848
 435.50;20495.459;  418.064;51971.869; 0.40955
 436.09;20315.916;  418.432;51687.970; 0.41106
 436.68;20085.605;  422.559;51624.303; 0.41563
 437.27;19852.780;  439.214;51661.122; 0.42135
 437.86;19732.576;  433.576;51508.561; 0.42267
 438.45;19616.004;  436.794;51330.326; 0.42383
 439.04;19577.981;  419.148;51043.637; 0.42199
 439.62;19382.008;  412.025;51000.963; 0.42599
 440.21;19192.778;  413.441;50885.373; 0.42937
 440.80;19057.608;  430.263;51024.538; 0.43395
 441.39;19006.550;  449.560;51081.161; 0.43591
 441.98;18871.701;  447.874;51020.625; 0.43854
 442.57;18586.336;  436.530;50797.219; 0.44322
 443.16;18341.388;  425.660;50702.578; 0.44813
 443.75;18221.745;  431.481;50788.909; 0.45188
 444.33;18124.887;  435.018;50969.383; 0.45586
 444.92;17984.184;  440.355;50892.685; 0.45876
 445.51;17805.524;  417.614;50850.986; 0.46247
 446.10;17739.785;  410.612;51056.876; 0.46577
 446.69;17655.804;  404.712;51275.545; 0.46965
 447.28;17550.329;  420.929;51457.726; 0.47414
 447.87;17439.328;  412.657;51329.383; 0.47573
 448.45;17338.040;  413.036;51412.748; 0.47904
 449.04;17293.950;  390.874;51445.980; 0.48007
 449.63;17252.272;  386.972;51646.289; 0.48278
 450.22;17144.456;  381.501;51835.467; 0.48707
 450.81;17002.541;  386.090;52100.884; 0.49308
 451.40;16868.135;  391.666;52058.120; 0.49634
 451.98;16733.776;  398.229;52052.065; 0.49997
 452.57;16624.185;  403.856;52211.469; 0.50433
 453.16;16365.071;  401.626;52273.023; 0.51180
 453.75;16261.431;  391.994;52359.708; 0.51517
 454.34;16146.424;  388.814;52215.013; 0.51706
 454.93;16182.128;  395.232;52494.699; 0.51854
 455.51;16075.660;  391.805;52615.216; 0.52241
 456.10;15954.572;  402.670;52907.445; 0.52842
 456.69;15750.513;  396.116;53041.712; 0.53513
 457.28;15683.672;  403.304;53288.203; 0.53920
 457.87;15649.146;  395.902;53216.666; 0.53944
 458.45;15614.210;  396.108;53304.691; 0.54117
 459.04;15487.927;  388.965;53401.373; 0.54543
 459.63;15324.050;  395.666;53676.141; 0.55256
 460.22;15231.717;  396.420;53639.128; 0.55496
 460.80;15183.724;  400.600;53692.823; 0.55690
 461.39;15147.455;  392.483;53895.895; 0.55944
 461.98;15098.708;  393.792;54364.115; 0.56469
 462.57;15123.575;  398.874;54782.941; 0.56743
 463.16;15073.263;  397.668;55197.607; 0.57218
 463.74;14998.200;  387.726;55673.212; 0.57795
 464.33;14914.422;  376.102;56213.777; 0.58441
 464.92;14876.700;  370.427;56547.398; 0.58800
 465.51;14938.687;  357.831;56911.710; 0.58868
 466.09;14936.902;  358.204;57352.888; 0.59212
 466.68;15055.816;  361.518;57898.436; 0.59280
 467.27;15025.354;  372.331;58292.638; 0.59690
 467.86;15040.784;  368.243;58560.733; 0.59836
 468.44;14954.646;  363.094;58919.922; 0.60348
 469.03;14942.545;  361.882;59322.152; 0.60678
 469.62;14909.455;  367.807;59788.037; 0.61132
 470.20;14988.442;  365.300;60231.337; 0.61214
 470.79;14991.300;  374.762;60677.863; 0.61550
 471.38;15007.607;  358.816;61146.166; 0.61801
 471.97;14978.180;  359.020;61564.389; 0.62187
 472.55;15031.811;  350.111;61933.679; 0.62269
 473.14;15207.741;  362.234;62406.602; 0.62111
 473.73;15232.037;  355.473;62971.535; 0.62418
 474.31;15229.313;  347.428;63489.444; 0.62766
 474.90;15164.134;  350.797;63899.238; 0.63245
 475.49;15214.802;  352.737;64160.914; 0.63280
 476.07;15210.193;  357.870;64473.326; 0.63517
 476.66;15211.062;  347.892;64752.829; 0.63681
 477.25;15170.930;  340.581;65000.332; 0.63948
 477.84;15252.464;  352.761;65155.193; 0.63841
 478.42;15230.226;  344.733;65155.945; 0.63889
 479.01;15219.283;  344.681;65156.001; 0.63921
 479.60;15137.800;  330.210;65156.511; 0.64127
 480.18;15088.901;  334.265;65158.257; 0.64281
 480.77;15052.807;  342.135;65159.480; 0.64406
 481.35;15044.366;  347.900;65159.373; 0.64444
 481.94;15067.845;  344.738;65159.188; 0.64367
 482.53;15010.923;  335.059;65159.923; 0.64514
 483.11;14890.385;  332.000;65160.709; 0.64865
 483.70;14808.741;  318.067;65161.719; 0.65078
 484.29;14706.034;  316.585;65163.324; 0.65384
 484.87;14653.934;  306.461;65164.542; 0.65519
 485.46;14518.994;  315.710;65164.272; 0.65951
 486.05;14531.624;  319.958;65162.920; 0.65922
 486.63;14467.620;  321.237;65162.258; 0.66120
 487.22;14415.280;  317.302;65162.909; 0.66272
 487.81;14347.424;  323.288;65164.368; 0.66497
 488.39;14255.532;  331.856;65164.474; 0.66804
 488.98;14168.449;  337.207;65163.733; 0.67089
 489.56;14035.190;  317.228;65164.794; 0.67460
 490.15;13936.120;  310.772;65166.371; 0.67760
 490.74;13841.884;  302.771;65167.454; 0.68042
 491.32;13688.563;  305.937;65168.774; 0.68545
 491.91;13542.533;  316.111;64974.057; 0.68918
 492.49;13317.785;  317.823;64712.314; 0.69491
 493.08;13116.593;  332.939;64167.133; 0.69840
 493.67;12962.676;  325.500;63724.219; 0.70043
 494.25;12864.313;  343.920;63105.848; 0.70008
 494.84;12748.559;  335.724;62474.087; 0.69949
 495.42;12540.232;  338.386;61959.759; 0.70331
 496.01;12297.794;  319.873;61399.648; 0.70752
 496.59;12105.266;  310.443;60754.114; 0.70966
 497.18;11995.636;  311.106;60078.479; 0.70885
 497.77;11817.142;  311.733;59331.632; 0.71010
 498.35;11715.316;  326.966;58841.796; 0.71081
 498.94;11593.731;  324.499;58030.218; 0.70932
 499.52;11549.706;  324.914;57567.186; 0.70754
 500.11;11437.472;  311.275;56906.600; 0.70643
 500.69;11319.114;  304.601;56449.246; 0.70734
 501.28;11189.245;  315.149;55764.708; 0.70750
 501.86;11013.015;  317.653;55155.772; 0.70989
 502.45;10918.635;  338.264;54632.693; 0.71025
 503.03;10873.593;  328.939;54106.656; 0.70757
 503.62;10857.674;  339.385;53665.090; 0.70499
 504.20;10829.226;  326.215;53123.968; 0.70130
 504.79;10731.084;  326.766;52666.148; 0.70161
 505.37;10675.792;  326.582;52358.543; 0.70136
 505.96;10615.672;  332.269;51859.105; 0.69990
 506.55;10705.752;  327.706;51491.158; 0.69284
 507.13;10756.362;  315.837;51254.709; 0.68833
 507.72;10904.061;  312.954;51138.387; 0.68114
 508.30;11009.957;  319.265;50944.634; 0.67536
 508.89;11188.474;  316.460;50626.145; 0.66534
 509.47;11242.393;  308.593;50383.056; 0.66085
 510.05;11275.873;  311.037;50305.214; 0.65892
 510.64;11357.525;  312.992;50205.541; 0.65489
 511.22;11503.462;  326.961;50242.492; 0.64993
 511.81;11684.151;  323.186;50282.527; 0.64320
 512.39;11887.234;  329.747;50266.280; 0.63555
 512.98;12029.075;  310.647;50213.110; 0.62925
 513.56;12309.273;  306.947;50200.284; 0.61878
 514.15;12485.179;  297.484;50225.841; 0.61243
 514.73;12715.341;  293.306;50310.339; 0.60493
 515.32;12857.379;  298.909;50412.714; 0.60102
 515.90;13171.810;  306.909;50529.464; 0.59149
 516.49;13365.626;  321.223;50576.262; 0.58576
 517.07;13609.846;  323.415;50501.804; 0.57711
 517.66;13717.671;  325.663;50468.951; 0.57337
 518.24;13976.161;  330.491;50581.443; 0.56615
 518.82;14178.498;  322.791;50433.118; 0.55830
 519.41;14432.304;  321.449;50483.238; 0.55082
 519.99;14686.033;  304.901;50520.942; 0.54305
 520.58;15028.947;  313.039;50964.514; 0.53681
 521.16;15307.940;  316.114;51139.212; 0.53021
 521.75;15662.204;  315.579;51354.849; 0.52189
 522.33;15875.208;  314.722;51552.832; 0.51757
 522.91;16250.522;  303.280;51724.449; 0.50846
 523.50;16486.501;  304.661;51708.091; 0.50196
 524.08;16822.941;  292.957;51816.521; 0.49373
 524.67;17088.922;  296.699;52029.160; 0.48865
 525.25;17397.403;  294.898;52244.306; 0.48252
 525.83;17648.109;  300.195;52281.679; 0.47660
 526.42;18036.757;  299.604;52255.985; 0.46675
 527.00;18284.428;  297.414;52315.968; 0.46120
 527.59;18575.531;  293.742;52194.390; 0.45315
 528.17;18755.274;  296.702;52169.461; 0.44874
 528.75;19140.931;  314.407;52237.781; 0.44059
 529.34;19487.353;  317.963;52410.206; 0.43416
 529.92;19735.842;  322.096;52599.701; 0.43021
 530.50;19910.236;  308.099;52577.086; 0.42594
 531.09;20066.073;  310.277;52580.588; 0.42256
 531.67;20338.879;  319.699;52493.409; 0.41601
 532.25;20576.433;  331.224;52474.618; 0.41088
 532.84;20810.915;  319.265;52286.406; 0.40415
 533.42;21008.968;  303.579;52069.121; 0.39796
 534.00;21192.123;  296.379;51800.283; 0.39178
 534.59;21359.193;  306.923;51692.027; 0.38754
 535.17;21527.136;  307.396;51484.292; 0.38233
 535.75;21680.217;  311.833;51399.345; 0.37854
 536.34;21907.514;  327.170;51106.314; 0.37163
 536.92;21997.207;  323.362;50970.357; 0.36862
 537.50;22137.224;  320.767;50555.361; 0.36222
 538.09;22173.809;  304.234;50224.272; 0.35843
 538.67;22298.553;  307.957;49849.711; 0.35273
 539.25;22354.738;  292.004;49517.578; 0.34853
 539.84;22475.948;  298.382;49195.084; 0.34337
 540.42;22536.977;  287.620;48747.408; 0.33806
 541.00;22638.511;  304.712;48328.615; 0.33249
 541.59;22778.365;  293.453;47996.146; 0.32665
 542.17;22858.875;  303.713;47681.974; 0.32233
 542.75;22975.667;  301.687;47449.085; 0.31793
 543.33;22988.339;  321.928;47035.436; 0.31406
 543.92;23100.693;  322.791;46647.473; 0.30830
 544.50;23222.893;  319.637;46212.001; 0.30184
 545.08;23320.307;  303.653;45900.067; 0.29689
 545.67;23422.436;  304.594;45544.519; 0.29157
 546.25;23435.515;  306.855;45243.598; 0.28845
 546.83;23522.144;  305.919;44881.223; 0.28330
 547.41;23583.552;  307.185;44485.963; 0.27830
 548.00;23597.336;  304.048;44073.416; 0.27394
 548.58;23499.942;  293.554;43651.340; 0.27146
 549.16;23453.908;  273.252;43462.973; 0.27025
 549.74;23623.942;  276.221;43125.006; 0.26369
 550.33;23748.975;  287.338;42789.017; 0.25805
 550.91;23823.429;  287.502;42328.145; 0.25194
 551.49;23828.995;  275.114;42084.067; 0.24921
 552.07;23972.273;  281.527;41894.675; 0.24465
 552.66;24145.863;  296.715;41696.915; 0.23953
 553.24;24235.420;  301.874;41407.799; 0.23490
 553.82;24336.026;  287.046;41262.389; 0.23143
 554.40;24343.623;  287.502;41018.645; 0.22870
 554.98;24462.157;  286.839;40927.197; 0.22559
 555.57;24632.054;  295.511;40724.442; 0.22043
 556.15;24810.808;  295.794;40729.857; 0.21732
 556.73;24932.820;  289.872;40584.856; 0.21356
 557.31;25079.745;  280.087;40487.094; 0.20986
 557.89;25278.557;  267.680;40402.230; 0.20539
 558.48;25504.476;  270.725;40389.487; 0.20137
 559.06;25564.965;  269.279;40492.969; 0.20144
 559.64;25699.017;  288.172;40421.363; 0.19848
 560.22;25900.473;  308.276;40298.501; 0.19385
 560.80;26075.750;  311.749;40155.433; 0.18935
 561.39;26291.145;  300.174;40123.139; 0.18531
 561.97;26442.151;  304.256;40118.465; 0.18277
 562.55;26753.613;  305.864;40159.584; 0.17808
 563.13;26923.846;  307.652;40244.814; 0.17623
 563.71;27038.350;  295.320;40343.674; 0.17537
 564.29;27214.828;  296.315;40286.513; 0.17190
 564.88;27349.029;  280.495;40218.374; 0.16892
 565.46;27539.781;  277.260;40267.767; 0.16639
 566.04;27634.257;  269.464;40338.574; 0.16562
 566.62;27958.126;  292.162;40520.457; 0.16259
 567.20;28246.679;  292.265;40647.678; 0.15945
 567.78;28523.417;  300.170;40851.754; 0.15740
 568.36;28692.417;  300.837;41002.754; 0.15643
 568.94;28947.863;  296.460;41004.189; 0.15253
 569.53;29145.204;  295.816;41099.192; 0.15056
 570.11;29322.840;  283.902;41113.488; 0.14799
 570.69;29467.274;  278.869;41248.245; 0.14725
 571.27;29643.958;  279.854;41227.262; 0.14441
 571.85;29722.920;  279.584;41295.220; 0.14396
 572.43;29950.938;  299.078;41479.213; 0.14264
 573.01;30227.935;  288.199;41566.526; 0.13947
 573.59;30534.733;  284.931;41522.011; 0.13457
 574.17;30630.339;  270.419;41423.650; 0.13210
 574.76;30718.429;  278.826;41529.098; 0.13199
 575.34;30857.993;  274.920;41725.997; 0.13205
 575.92;31111.522;  271.771;41808.186; 0.12932
 576.50;31423.834;  265.398;41828.507; 0.12513
 577.08;31721.378;  261.206;41866.048; 0.12138
 577.66;31922.377;  250.776;41875.013; 0.11868
 578.24;31964.205;  252.747;41879.155; 0.11815
 578.82;32032.625;  257.942;41897.583; 0.11743
 579.40;32168.585;  266.978;41903.210; 0.11566
 579.98;32359.337;  273.567;41841.961; 0.11245
 580.56;32498.358;  281.852;41853.319; 0.11072
 581.14;32641.538;  291.659;41917.834; 0.10949
 581.72;32754.619;  280.280;42082.244; 0.10966
 582.30;32895.192;  273.151;42074.467; 0.10768
 582.88;32929.010;  274.650;42152.288; 0.10804
 583.46;33092.195;  282.363;42189.821; 0.10629
 584.04;33347.814;  282.956;42171.457; 0.10273
 584.62;33533.832;  265.125;42197.830; 0.10052
 585.21;33580.442;  267.265;42241.428; 0.10037
 585.79;33603.702;  273.754;42392.009; 0.10164
 586.37;33670.668;  277.118;42415.309; 0.10101
 586.95;33891.182;  275.522;42455.787; 0.09857
 587.53;34072.240;  269.979;42469.819; 0.09637
 588.11;34251.001;  278.442;42585.262; 0.09528
 588.69;34384.919;  282.733;42557.865; 0.09330
 589.27;34458.193;  283.424;42506.477; 0.09184
 589.85;34602.662;  276.026;42443.602; 0.08935
 590.43;34758.336;  271.715;42599.939; 0.08898
 591.01;34900.241;  278.076;42722.853; 0.08847
 591.59;35015.663;  288.299;42936.945; 0.08923
 592.16;35104.042;  287.924;42891.657; 0.08767
 592.74;35270.777;  291.617;42886.045; 0.08554
 593.32;35348.371;  293.193;42739.948; 0.08309
 593.90;35431.064;  297.895;42708.966; 0.08176
 594.48;35372.462;  288.777;42603.037; 0.08138
 595.06;35521.884;  285.245;42684.475; 0.08036
 595.64;35606.643;  272.769;42709.242; 0.07955
 596.22;35775.876;  276.890;42757.472; 0.07797
 596.80;35683.033;  268.138;42505.619; 0.07651
 597.38;35713.981;  264.245;42457.558; 0.07563
 597.96;35796.996;  262.869;42299.911; 0.07299
 598.54;35837.821;  268.057;42320.734; 0.07271
 599.12;35797.170;  272.769;42174.074; 0.07170
 599.70;35786.380;  272.156;42133.628; 0.07141
 600.28;35910.958;  269.178;41999.881; 0.06850
 600.86;35980.992;  273.568;41898.236; 0.06659
 601.44;35893.075;  279.130;41816.989; 0.06682
 602.02;35765.736;  273.135;41601.984; 0.06612
 602.59;35733.594;  269.019;41487.164; 0.06529
 603.17;35725.740;  254.435;41427.991; 0.06474
 603.75;35786.431;  264.600;41407.036; 0.06379
 604.33;35605.093;  268.544;41269.041; 0.06456
 604.91;35494.362;  272.574;41056.648; 0.06368
 605.49;35333.457;  271.546;40985.067; 0.06490
 606.07;35429.628;  254.900;40828.877; 0.06202
 606.65;35288.121;  260.422;40696.701; 0.06236
 607.23;35235.874;  264.441;40448.820; 0.06034
 607.80;35018.756;  277.156;40221.379; 0.06060
 608.38;34993.872;  277.256;40025.464; 0.05878
 608.96;34851.087;  285.786;39921.000; 0.05944
 609.54;34739.453;  288.246;39743.725; 0.05890
 610.12;34548.436;  283.928;39528.375; 0.05893
 610.70;34367.030;  273.259;39095.265; 0.05640
 611.28;34171.498;  259.195;38813.390; 0.05571
 611.85;33912.327;  265.841;38433.913; 0.05476
 612.43;33709.692;  260.695;38304.961; 0.05591
 613.01;33524.232;  263.202;38019.161; 0.05505
 613.59;33363.857;  249.299;37795.112; 0.05454
 614.17;33195.150;  240.914;37668.085; 0.05528
 614.75;32968.934;  222.778;37521.205; 0.05653
 615.32;32860.516;  209.277;37291.775; 0.05527
 615.90;32683.969;  219.080;36866.572; 0.05263
 616.48;32483.044;  232.952;36658.988; 0.05288
 617.06;32166.550;  255.157;36308.488; 0.05300
 617.64;31935.870;  246.140;36072.812; 0.05329
 618.22;31735.906;  241.049;35666.522; 0.05108
 618.79;31593.333;  228.178;35515.632; 0.05117
 619.37;31401.049;  227.104;35180.352; 0.04970
 619.95;31188.330;  231.387;34894.600; 0.04911
 620.53;30904.565;  218.869;34491.494; 0.04801
 621.11;30545.013;  206.529;34156.975; 0.04885
 621.68;30290.068;  201.116;33920.700; 0.04948
 622.26;30237.830;  202.843;33803.106; 0.04872
 622.84;30191.770;  212.594;33643.042; 0.04732
 623.42;30054.129;  214.208;33340.072; 0.04537
 623.99;29801.548;  232.130;33128.823; 0.04631
 624.57;29531.595;  239.695;32874.211; 0.04693
 625.15;29403.993;  249.244;32723.283; 0.04683
 625.73;29242.822;  235.066;32483.448; 0.04599
 626.30;29166.837;  228.444;32290.122; 0.04451
 626.88;28966.656;  228.031;32032.596; 0.04402
 627.46;28679.828;  230.061;31766.787; 0.04474
 628.04;28488.908;  242.419;31549.234; 0.04467
 628.61;28295.113;  241.899;31249.103; 0.04348
 629.19;28129.114;  244.829;31015.066; 0.04277
 629.77;27877.144;  231.831;30736.758; 0.04275
 630.35;27618.227;  234.217;30562.869; 0.04436
 630.92;27444.933;  232.092;30375.921; 0.04442
 631.50;27317.139;  220.757;30199.145; 0.04390
 632.08;27219.000;  206.521;29949.680; 0.04182
 632.66;27091.790;  196.801;29744.460; 0.04085
 633.23;26826.752;  216.776;29426.430; 0.04048
 633.81;26603.016;  225.566;29138.020; 0.03985
 634.39;26393.439;  220.298;28844.754; 0.03888
 634.96;26294.814;  221.956;28624.791; 0.03717
 635.54;26099.891;  216.680;28606.896; 0.04015
 636.12;25878.604;  214.735;28334.976; 0.03970
 636.69;25612.898;  204.526;28222.591; 0.04246
 637.27;25427.495;  199.403;27913.834; 0.04082
 637.85;25323.063;  217.219;27696.062; 0.03922
 638.42;25151.323;  206.286;27392.989; 0.03737
 639.00;24982.438;  223.367;27259.457; 0.03821
 639.58;24689.244;  209.789;26981.612; 0.03888
 640.15;24511.788;  222.891;26790.445; 0.03894
 640.73;24288.904;  204.119;26492.226; 0.03802
 641.31;24192.020;  216.013;26471.006; 0.03944
 641.88;24043.135;  210.908;26285.787; 0.03906
 642.46;24035.917;  226.803;26132.901; 0.03666
 643.04;23933.366;  214.697;25934.349; 0.03517
 643.61;23830.815;  223.925;25817.463; 0.03509
 644.19;23705.597;  209.153;25659.577; 0.03469
 644.77;23608.046;  224.048;25468.358; 0.03324
 645.34;23430.495;  211.943;25293.805; 0.03352
 645.92;23191.944;  214.504;25070.586; 0.03413
 646.49;23055.393;  218.399;24938.033; 0.03440
 647.07;22926.842;  220.293;24745.814; 0.03347
 647.65;22803.624;  224.188;24564.928; 0.03262
 648.22;22623.406;  218.082;24391.042; 0.03298
 648.80;22565.522;  227.310;24368.156; 0.03370
 649.37;22503.971;  227.872;24339.937; 0.03440
 649.95;22469.086;  227.433;24242.051; 0.03331
 650.53;22428.202;  209.328;24121.165; 0.03189
 651.10;22292.651;  214.222;24054.279; 0.03334
 651.68;22193.100;  211.450;24020.060; 0.03467
 652.25;22032.882;  221.012;23899.174; 0.03566
 652.83;21917.664;  211.573;23700.955; 0.03429
 653.41;21800.780;  208.468;23524.069; 0.03335
 653.98;21720.562;  212.362;23340.850; 0.03154
 654.56;21669.344;  211.590;23307.630; 0.03195
 655.13;21582.460;  208.818;23285.744; 0.03330
 655.71;21513.575;  207.379;23284.525; 0.03468
 656.28;21374.691;  194.941;23185.639; 0.03563
 656.86;21342.140;  188.169;22962.753; 0.03206
 657.43;21329.922;  190.397;22872.868; 0.03060
 658.01;21389.037;  212.958;22793.315; 0.02789
 658.58;21374.486;  207.519;22876.096; 0.02977
 659.16;21308.935;  211.747;22798.876; 0.02964
 659.74;21258.718;  196.309;22777.324; 0.03024
 660.31;21202.166;  204.203;22714.438; 0.03020
 660.89;21216.615;  198.098;22687.885; 0.02938
 661.46;21172.731;  206.659;22545.999; 0.02755
 662.04;21117.846;  208.554;22516.780; 0.02813
 662.61;21061.295;  207.448;22500.894; 0.02899
 663.19;21090.411;  206.676;22626.342; 0.03082
 663.76;21117.193;  209.571;22600.456; 0.02977
 664.34;21103.975;  211.132;22526.237; 0.02860
 664.91;21097.424;  214.027;22413.684; 0.02655
 665.49;21191.206;  216.922;22441.798; 0.02515
 666.06;21202.655;  213.150;22513.246; 0.02630
 666.64;21275.438;  212.044;22555.693; 0.02563
 667.21;21234.220;  216.606;22500.140; 0.02540
 667.79;21279.669;  204.167;22400.588; 0.02251
 668.36;21245.118;  201.395;22402.702; 0.02326
 668.93;21300.900;  202.290;22421.149; 0.02247
 669.51;21206.682;  198.184;22426.263; 0.02451
 670.08;21114.798;  192.412;22387.044; 0.02564
 670.66;21005.580;  189.307;22273.825; 0.02568
 671.23;21119.695;  213.201;22361.606; 0.02506
 671.81;21145.811;  219.763;22403.720; 0.02535
 672.38;21107.927;  224.324;22501.167; 0.02805
 672.96;21098.042;  213.552;22510.281; 0.02842
 673.53;21136.158;  213.113;22482.395; 0.02708
 674.10;21176.607;  213.008;22524.843; 0.02707
 674.68;21089.055;  228.236;22505.290; 0.02853
 675.25;21055.504;  221.131;22417.404; 0.02750
 675.83;21067.287;  215.692;22370.185; 0.02632
 676.40;21021.069;  203.253;22300.299; 0.02590
 676.98;21081.851;  209.148;22323.413; 0.02509
 677.55;21028.967;  210.043;22281.527; 0.02537
 678.12;21066.082;  223.937;22260.975; 0.02421
 678.70;20941.531;  221.832;22236.089; 0.02632
 679.27;20872.980;  229.060;22163.870; 0.02634
 679.85;20824.096;  216.621;22124.984; 0.02659
 680.42;20958.211;  216.516;22133.431; 0.02394
 680.99;20926.993;  192.744;22099.212; 0.02388
 681.57;21020.109;  198.305;22028.659; 0.02054
 682.14;20913.224;  205.866;21848.773; 0.01919
 682.71;20961.340;  210.761;21795.554; 0.01712
 683.29;20771.122;  200.656;21706.668; 0.01932
 683.86;20592.238;  185.884;21546.116; 0.01984
 684.43;20475.687;  198.112;21362.230; 0.01858
 685.01;20423.136;  197.006;21197.011; 0.01631
 685.58;20417.918;  206.234;21272.458; 0.01798
 686.16;20452.700;  206.462;21269.239; 0.01717
 686.73;20455.816;  215.023;21397.686; 0.01975
 687.30;20374.264;  207.585;21388.467; 0.02131
 687.88;20188.713;  217.479;21321.914; 0.02397
 688.45;20124.829;  210.707;21118.362; 0.02114
 689.02;20057.611;  213.602;21022.142; 0.02061
 689.60;20112.727;  190.497;20889.257; 0.01661
 690.17;20035.509;  199.391;20926.704; 0.01909
 690.74;19992.958;  189.619;20805.485; 0.01746
 691.31;19782.407;  204.181;20824.932; 0.02253
 691.89;19679.522;  191.742;20754.713; 0.02332
 692.46;19670.305;  212.637;20700.494; 0.02241
 693.03;19757.087;  229.198;20611.941; 0.01861
 693.61;19683.869;  234.759;20426.722; 0.01628
 694.18;19537.318;  237.320;20424.503; 0.01952
 694.75;19361.767;  206.882;20414.950; 0.02325
 695.32;19239.882;  208.110;20458.064; 0.02694
 695.90;19254.665;  203.004;20312.512; 0.02347
 696.47;19311.447;  203.899;20210.626; 0.01997
 697.04;19384.229;  214.460;20060.073; 0.01505
 697.62;19360.011;  213.355;20039.187; 0.01514
 698.19;19186.460;  229.250;19951.301; 0.01718
 698.76;19117.909;  211.144;19960.082; 0.01893
 699.33;19060.358;  210.706;19883.196; 0.01856
 699.91;18960.140;  196.600;19795.977; 0.01893
 700.48;18925.256;  206.162;19674.091; 0.01703
 701.05;18803.705;  208.056;19645.538; 0.01923
 701.62;18759.487;  232.951;19536.652; 0.01785
 702.20;18647.602;  235.179;19463.767; 0.01884
 702.77;18583.718;  232.073;19314.881; 0.01697
 703.34;18548.500;  217.301;19303.995; 0.01754
 703.91;18546.282;  214.196;19161.775; 0.01434
 704.48;18441.398;  220.091;19054.223; 0.01437
 705.06;18410.847;  212.652;18964.004; 0.01300
 705.63;18281.629;  221.213;18940.118; 0.01555
 706.20;18249.411;  214.441;18934.565; 0.01619
 706.77;18216.194;  221.336;18864.679; 0.01538
 707.34;18212.642;  215.564;18821.793; 0.01446
 707.92;18113.425;  205.792;18710.907; 0.01425
 708.49;17986.874;  193.353;18575.022; 0.01412
 709.06;17912.656;  193.248;18466.136; 0.01336
 709.63;17886.105;  194.476;18431.916; 0.01320
 710.20;17878.554;  191.037;18446.697; 0.01373
 710.77;17787.669;  187.932;18338.145; 0.01338
 711.35;17831.785;  185.826;18305.592; 0.01151
 711.92;17863.234;  205.721;18271.706; 0.00993
 712.49;17933.349;  207.616;18372.487; 0.01063
 713.06;17961.798;  215.844;18405.934; 0.01074
 713.63;18005.247;  209.405;18498.382; 0.01187
 714.20;18015.363;  212.300;18556.829; 0.01301
 714.78;18034.478;  209.528;18487.277; 0.01089
 715.35;17882.260;  205.756;18407.724; 0.01272
 715.92;17849.376;  207.317;18351.838; 0.01220
 716.49;17786.491;  222.545;18343.285; 0.01355
 717.06;17854.940;  226.106;18273.400; 0.01019
 717.63;17782.389;  217.334;18198.847; 0.01018
 718.20;17700.172;  210.895;18175.294; 0.01164
 718.77;17690.954;  224.790;18170.075; 0.01175
 719.35;17641.736;  226.351;18153.189; 0.01257
 719.92;17532.852;  211.913;18038.303; 0.01249
 720.49;17361.300;  197.474;17879.084; 0.01291
 721.06;17245.416;  177.369;17774.532; 0.01326
 721.63;17280.865;  190.930;17799.979; 0.01300
 722.20;17324.314;  195.825;17861.426; 0.01341
 722.77;17371.429;  203.386;17825.540; 0.01134
 723.34;17267.545;  196.947;17821.321; 0.01386
 723.91;17247.660;  205.509;17813.102; 0.01418
 724.48;17277.443;  222.070;17777.883; 0.01256
 725.05;17326.558;  212.964;17617.997; 0.00733
 725.62;17209.674;  195.192;17490.778; 0.00712
 726.20;17176.456;  186.754;17461.892; 0.00724
 726.77;17091.238;  192.982;17446.339; 0.00903
 727.34;17116.021;  199.210;17412.787; 0.00755
 727.91;17105.136;  209.104;17361.567; 0.00654
 728.48;17052.252;  214.999;17354.015; 0.00771
 729.05;16996.367;  215.560;17353.795; 0.00915
 729.62;16891.149;  192.788;17320.910; 0.01104
 730.19;16982.932;  185.683;17297.024; 0.00805
 730.76;17083.047;  188.578;17324.138; 0.00615
 731.33;16985.496;  211.472;17306.252; 0.00823
 731.90;16872.945;  215.034;17274.033; 0.01033
 732.47;16745.727;  206.261;17242.147; 0.01284
 733.04;16766.843;  191.156;17245.594; 0.01237
 733.61;16760.292;  168.051;17256.042; 0.01279
 734.18;16736.741;  173.945;17191.156; 0.01175
 734.75;16692.523;  184.507;17077.270; 0.01001
 735.32;16611.638;  211.401;16955.384; 0.00901
 735.89;16467.087;  203.963;16851.831; 0.01015
 736.46;16375.870;  212.191;16734.945; 0.00954
 737.03;16372.652;  203.085;16674.393; 0.00803
 737.60;16397.101;  203.647;16580.840; 0.00490
 738.17;16309.550;  173.208;16558.621; 0.00665
 738.74;16145.998;  184.103;16523.735; 0.01016
 739.31;16041.781;  185.331;16430.849; 0.01053
 739.88;15988.896;  195.225;16300.630; 0.00849
 740.45;15972.678;  176.120;16234.411; 0.00714
 741.02;15913.127;  174.348;16293.858; 0.01038
 741.59;15945.910;  171.909;16337.305; 0.01064
 742.15;15937.025;  177.804;16325.753; 0.01058
 742.72;15981.141;  185.365;16376.867; 0.01075
 743.29;15954.590;  187.593;16351.648; 0.01080
 743.86;15929.705;  195.154;16298.095; 0.01005
 744.43;15870.154;  197.049;16220.543; 0.00960
 745.00;15890.936;  201.277;16240.323; 0.00957
 745.57;15854.385;  209.172;16261.771; 0.01116
 746.14;15896.501;  201.733;16198.552; 0.00828
 746.71;15934.283;  208.294;16179.666; 0.00672
 747.28;15961.732;  196.522;16170.446; 0.00571
 747.85;15947.514;  172.417;16124.227; 0.00484
 748.42;15897.963;  173.645;16103.675; 0.00564
 748.98;15843.745;  177.206;16075.455; 0.00638
 749.55;15818.861;  197.767;16011.569; 0.00532
 750.12;15817.310;  197.662;16015.683; 0.00548
 750.69;15798.425;  204.890;15955.131; 0.00434
 751.26;15709.541;  216.118;15910.245; 0.00559
 751.83;15618.990;  206.013;15821.026; 0.00566
 752.40;15659.772;  204.907;15769.807; 0.00308
 752.97;15686.554;  192.802;15780.587; 0.00263
 753.53;15629.336;  195.697;15773.035; 0.00402
 754.10;15563.785;  187.925;15706.815; 0.00402
 754.67;15525.234;  185.486;15666.263; 0.00397
 755.24;15487.683;  192.714;15616.044; 0.00363
 755.81;15408.465;  200.608;15583.491; 0.00497
 756.38;15419.914;  223.503;15510.272; 0.00257
 756.94;15439.696;  215.064;15482.386; 0.00122
 757.51;15313.812;  204.292;15502.833; 0.00540
 758.08;15178.261;  196.520;15545.281; 0.01051
 758.65;15078.043;  213.748;15443.728; 0.01056
 759.22;15153.825;  220.643;15351.176; 0.00570
 759.79;14953.941;  205.538;15180.623; 0.00662
 760.35;14844.390;  191.432;15130.404; 0.00840
 760.92;14615.172;  201.994;14987.518; 0.01108
 761.49;14554.288;  208.555;14849.965; 0.00886
 762.06;14452.403;  211.783;14641.079; 0.00572
 762.63;14431.852;  201.011;14500.527; 0.00209
 763.19;14405.301;  203.239;14469.641; 0.00196
 763.76;14260.750;  215.133;14423.422; 0.00500
 764.33;14054.532;  219.695;14294.202; 0.00746
 764.90;13926.314;  218.589;14107.650; 0.00571
 765.46;13815.430;  197.817;13914.097; 0.00314
 766.03;13754.212;  196.045;13749.878;-0.00014
 766.60;13533.994;  197.940;13624.992; 0.00295
 767.17;13374.110;  205.501;13465.773; 0.00301
 767.73;13193.225;  207.063;13413.220; 0.00730
 768.30;13076.341;  206.624;13205.001; 0.00432
 768.87;12935.790;  215.185;13045.782; 0.00374
 769.44;12771.239;  213.413;12836.229; 0.00224
 770.00;12596.688;  215.975;12686.677; 0.00315
 770.57;12334.470;  216.536;12525.791; 0.00680
 771.14;12120.585;  213.430;12350.238; 0.00830
 771.71;11905.034;  198.325;12122.686; 0.00800
 772.27;11741.483;  206.220;11935.800; 0.00725
 772.84;11606.265;  209.448;11715.914; 0.00416
 773.41;11481.381;  213.676;11595.695; 0.00438
 773.97;11359.163;  205.904;11440.809; 0.00317
 774.54;11153.612;  213.798;11314.923; 0.00636
 775.11;10986.394;  232.360;11227.370; 0.00962
 775.67;10838.177;  228.588;11074.818; 0.00958
 776.24;10787.626;  222.482;10902.265; 0.00469
 776.81;10653.408;  220.377;10665.712; 0.00051
 777.38;10485.857;  208.272;10484.160;-0.00007
 777.94;10313.639;  214.166;10350.941; 0.00160
 778.51;10152.754;  199.728;10214.721; 0.00270
 779.08;10042.870;  210.622;10137.835; 0.00417
 779.64; 9982.652;  201.517;10058.283; 0.00335
 780.21; 9929.768;  202.745; 9970.064; 0.00180
 780.78; 9823.217;  211.639; 9870.178; 0.00212
 781.34; 9651.999;  212.534; 9787.625; 0.00620
 781.91; 9537.781;  225.762; 9703.406; 0.00766
 782.47; 9492.897;  227.990; 9633.520; 0.00654
 783.04; 9486.012;  238.551; 9482.634;-0.00016
 783.61; 9435.461;  245.779; 9385.415;-0.00237
 784.17; 9378.577;  246.674; 9320.196;-0.00279
 784.74; 9227.359;  236.569; 9240.310; 0.00063
 785.31; 9155.475;  244.797; 9256.090; 0.00488
 785.87; 9080.257;  248.691; 9137.538; 0.00281
 786.44; 9091.706;  252.252; 9126.319; 0.00170
 787.00; 9064.821;  239.480; 9065.766; 0.00005
 787.57; 8992.603;  222.375; 9005.880; 0.00066
 788.14; 8950.052;  242.936; 8941.661;-0.00042
 788.70; 8884.501;  252.831; 8828.442;-0.00283
 789.27; 8934.950;  261.392; 8880.222;-0.00275
 789.83; 8869.732;  247.620; 8836.003;-0.00170
 790.40; 8856.181;  230.182; 8838.117;-0.00091
 790.96; 8766.297;  235.076; 8799.898; 0.00171
 791.53; 8774.746;  229.304; 8766.679;-0.00041
 792.10; 8731.528;  224.866; 8777.126; 0.00232
 792.66; 8708.310;  219.094; 8720.574; 0.00063
 793.23; 8611.759;  214.988; 8733.688; 0.00626
 793.79; 8584.208;  216.216; 8675.468; 0.00471
 794.36; 8619.657;  210.777; 8660.249; 0.00209
 794.92; 8668.772;  219.339; 8606.363;-0.00322
 795.49; 8675.888;  232.233; 8532.811;-0.00742
 796.05; 8593.670;  243.461; 8505.258;-0.00462
 796.62; 8518.452;  248.023; 8527.372; 0.00047
 797.19; 8451.568;  237.917; 8507.820; 0.00296
 797.75; 8401.017;  226.145; 8453.600; 0.00278
 798.32; 8376.132;  218.373; 8393.714; 0.00094
 798.88; 8408.248;  222.601; 8383.829;-0.00130
 799.45; 8444.030;  224.829; 8436.276;-0.00041
 800.01; 8581.146;  220.391; 8517.723;-0.00331
 800.58; 8739.261;  215.952; 8677.504;-0.00316
 801.14; 8992.044;  222.513; 8916.952;-0.00373
 801.71; 9198.159;  218.074; 9117.399;-0.00392
 802.27; 9444.941;  206.969; 9310.180;-0.00638
 802.84; 9677.724;  188.864; 9480.294;-0.00913
 803.40; 9928.173;  179.758; 9723.075;-0.00923
 803.96;10182.621;  198.986;10006.189;-0.00774
 804.53;10533.070;  210.548;10273.303;-0.01107
 805.09;10813.186;  208.442;10576.417;-0.00981
 805.66;11110.301;  200.670;10926.198;-0.00739
 806.22;11410.750;  172.898;11264.978;-0.00567
 806.79;11802.866;  185.793;11622.426;-0.00680
 807.35;12132.648;  182.354;11886.873;-0.00903
 807.92;12446.764;  214.582;12161.654;-0.01024
 808.48;12728.546;  221.810;12436.768;-0.01025
 809.05;13081.661;  217.705;12708.882;-0.01277
 809.61;13328.444;  213.933;13054.330;-0.00917
 810.17;13650.226;  218.827;13355.110;-0.00965
 810.74;13980.008;  231.055;13671.891;-0.00984
 811.30;14315.790;  226.617;13899.672;-0.01302
 811.87;14606.239;  214.511;14212.453;-0.01205
 812.43;14889.021;  214.406;14571.233;-0.00951
 812.99;15208.470;  216.967;14881.014;-0.00959
 813.56;15562.919;  221.862;15191.462;-0.01065
 814.12;15872.035;  221.090;15523.909;-0.00977
 814.69;16176.817;  216.318;15866.356;-0.00853
 815.25;16490.266;  210.213;16143.804;-0.00934
 815.81;16807.382;  200.774;16302.251;-0.01342
 816.38;17127.164;  196.335;16642.699;-0.01261
 816.94;17361.613;  193.897;16882.479;-0.01229
 817.51;17637.395;  192.791;17283.594;-0.00890
 818.07;17914.177;  201.019;17504.374;-0.01017
 818.63;18222.293;  202.247;17804.155;-0.01020
 819.20;18473.075;  201.808;18033.936;-0.01057
 819.76;18733.190;  209.370;18216.050;-0.01230
 820.32;18949.639;  216.598;18394.831;-0.01306
 820.89;19122.088;  218.159;18583.278;-0.01256
 821.45;19292.870;  193.387;18775.726;-0.01192
 822.01;19368.319;  176.615;18965.173;-0.00922
 822.58;19486.435;  180.843;19065.620;-0.00957
 823.14;19523.884;  194.404;19233.068;-0.00658
 823.70;19664.333;  202.299;19352.182;-0.00702
 824.27;19703.115;  193.194;19462.963;-0.00538
 824.83;19744.231;  215.421;19467.743;-0.00619
 825.39;19684.679;  215.649;19374.524;-0.00697
 825.95;19649.462;  221.211;19316.972;-0.00750
 826.52;19487.244;  191.105;19274.752;-0.00481
 827.08;19251.359;  189.000;19152.200;-0.00227
 827.64;18993.808;  175.895;18949.314;-0.00103
 828.21;18777.257;  175.123;18660.095;-0.00274
 828.77;18528.373;  181.351;18397.542;-0.00311
 829.33;18221.488;  183.579;18029.323;-0.00465
 829.89;17863.604;  181.807;17638.104;-0.00557
 830.46;17558.053;  185.701;17297.218;-0.00657
 831.02;17173.168;  190.596;16895.332;-0.00716
 831.58;16815.617;  201.157;16540.779;-0.00724
 832.15;16400.400;  185.052;16128.893;-0.00733
 832.71;16014.848;  188.280;15811.341;-0.00562
 833.27;15547.297;  178.841;15353.455;-0.00551
 833.83;15050.080;  169.736;14940.569;-0.00321
 834.39;14455.195;  164.297;14394.016;-0.00186
 834.96;13992.977;  162.192;13925.464;-0.00213
 835.52;13579.760;  187.086;13474.578;-0.00342
 836.08;13263.542;  188.981;13047.025;-0.00725
 836.64;12829.657;  194.876;12619.473;-0.00729
 837.21;12404.773;  198.770;12148.920;-0.00920
 837.77;12006.888;  198.332;11759.367;-0.00920
 838.33;11590.337;  206.893;11447.148;-0.00550
 838.89;11181.120;  203.121;11001.596;-0.00716
 839.45;10680.235;  205.349;10589.710;-0.00377
 840.02;10281.351;  209.910;10134.490;-0.00638
 840.58; 9892.466;  201.805; 9836.938;-0.00250
 841.14; 9564.915;  224.699; 9457.052;-0.00504
 841.70; 9147.031;  220.594; 9049.833;-0.00475
 842.26; 8745.813;  218.155; 8613.280;-0.00680
 842.82; 8327.262;  209.050; 8233.061;-0.00507
 843.39; 7920.711;  200.278; 7802.175;-0.00672
 843.95; 7508.493;  213.839; 7446.956;-0.00368
 844.51; 7142.275;  213.734; 7076.737;-0.00413
 845.07; 6842.391;  223.295; 6751.184;-0.00603
 845.63; 6565.173;  228.523; 6447.965;-0.00811
 846.19; 6309.955;  213.418; 6205.745;-0.00749
 846.75; 6126.737;  212.646; 6042.860;-0.00620
 847.32; 5946.186;  191.874; 5828.307;-0.00899
 847.88; 5751.635;  198.435; 5647.088;-0.00825
 848.44; 5497.751;  182.996; 5418.202;-0.00655
 849.00; 5302.866;  188.224; 5206.649;-0.00825
 849.56; 5148.649;  183.119; 5035.763;-0.00999
 850.12; 5079.097;  176.680; 4913.211;-0.01495
 850.68; 4991.213;  181.908; 4877.325;-0.01041
 851.24; 4978.995;  184.136; 4806.439;-0.01592
 851.80; 4920.778;  199.364; 4790.220;-0.01218
 852.37; 4861.226;  196.592; 4731.334;-0.01227
 852.93; 4811.675;  204.820; 4729.448;-0.00782
 853.49; 4769.791;  212.715; 4650.895;-0.01148
 854.05; 4760.240;  223.943; 4597.676;-0.01585
 854.61; 4695.355;  224.171; 4520.790;-0.01730
 855.17; 4688.471;  234.066; 4501.904;-0.01858
 855.73; 4666.586;  222.627; 4484.352;-0.01818
 856.29; 4670.369;  213.855; 4475.132;-0.01946
 856.85; 4675.484;  192.749; 4517.913;-0.01554
 857.41; 4742.266;  203.644; 4600.027;-0.01383
 857.97; 4808.049;  205.205; 4760.141;-0.00454
 858.53; 4902.498;  207.433; 4902.255;-0.00002
 859.09; 5060.613;  192.328; 5028.370;-0.00289
 859.65; 5322.729;  184.889; 5166.484;-0.01341
 860.21; 5654.178;  182.451; 5403.598;-0.02036
 860.77; 5946.293;  179.679; 5685.045;-0.02013
 861.33; 6250.075;  189.573; 6014.826;-0.01719
 861.89; 6606.524;  205.135; 6331.273;-0.01909
 862.45; 6934.307;  215.363; 6656.387;-0.01835
 863.01; 7300.755;  205.924; 6960.168;-0.02137
 863.57; 7576.871;  191.152; 7240.949;-0.02022
 864.13; 8002.320;  180.713; 7598.730;-0.02301
 864.69; 8356.102;  188.608; 7928.510;-0.02335
 865.25; 8759.551;  208.502; 8274.958;-0.02534
 865.81; 9053.333;  215.730; 8598.739;-0.02293
 866.37; 9397.449;  213.625; 8883.853;-0.02499
 866.93; 9693.564;  200.853; 9198.967;-0.02324
 867.49;10025.347;  216.081; 9536.081;-0.02222
 868.05;10257.795;  210.642; 9849.195;-0.01803
 868.61;10469.911;  206.870;10116.309;-0.01523
 869.17;10849.360;  185.765;10306.090;-0.02271
 869.73;11251.476;  202.660;10652.537;-0.02420
 870.29;11636.924;  209.554;10985.985;-0.02547
 870.85;11903.040;  212.115;11316.099;-0.02237
 871.41;12263.822;  192.010;11700.213;-0.02076
 871.97;12646.271;  179.571;12032.994;-0.02191
 872.53;12977.387;  184.799;12414.108;-0.01956
 873.09;13320.836;  192.361;12748.222;-0.01937
 873.65;13693.284;  202.922;13125.336;-0.01868
 874.20;14141.067;  204.150;13530.783;-0.01945
 874.76;14512.733;  206.483;13844.450;-0.02078
 875.32;14970.733;  199.150;14344.450;-0.01881
 875.88;15338.400;  204.817;14722.117;-0.01806
 876.44;15686.733;  218.150;15059.450;-0.01798
 877.00;15962.733;  218.150;15358.117;-0.01701
 877.56;16254.067;  215.483;15696.450;-0.01537
 878.12;16601.733;  204.483;16104.450;-0.01337
 878.68;16910.733;  211.817;16344.450;-0.01498
 879.23;17196.733;  207.150;16637.783;-0.01453
 879.79;17459.400;  220.483;16875.783;-0.01496
 880.35;17705.733;  205.150;17127.117;-0.01460
 880.91;17953.733;  192.150;17367.783;-0.01457
 881.47;18160.067;  175.817;17611.783;-0.01345
 882.03;18493.067;  191.483;17929.783;-0.01358
 882.59;18805.067;  204.150;18199.450;-0.01438
 883.14;19049.067;  217.150;18423.117;-0.01468
 883.70;19121.067;  220.150;18492.117;-0.01470
 884.26;19261.400;  217.483;18606.117;-0.01521
 884.82;19331.067;  200.150;18627.783;-0.01627
 885.38;19375.067;  184.483;18693.783;-0.01570
 885.94;19384.400;  186.817;18692.783;-0.01593
 886.49;19387.067;  200.150;18759.783;-0.01444
 887.05;19391.400;  192.817;18819.450;-0.01313
 887.61;19245.067;  182.817;18766.450;-0.01104
 888.17;19200.400;  175.817;18655.450;-0.01262
 888.73;19081.733;  189.483;18492.450;-0.01376
 889.28;18791.733;  190.150;18251.117;-0.01281
 889.84;18614.733;  191.817;18020.450;-0.01424
 890.40;18377.400;  194.817;17792.450;-0.01420
 890.96;18397.733;  199.483;17628.450;-0.01876
 891.51;18189.733;  189.483;17470.117;-0.01772
 892.07;18011.400;  183.817;17244.117;-0.01911
 892.63;17741.400;  190.483;17036.783;-0.01780
 893.19;17558.067;  200.817;16880.117;-0.01730
 893.74;17462.400;  215.150;16772.783;-0.01772
 894.30;17289.733;  206.150;16671.450;-0.01601
 894.86;17161.733;  185.150;16510.450;-0.01699
 895.42;17040.067;  176.483;16397.450;-0.01687
 895.97;16961.067;  175.150;16362.450;-0.01577
 896.53;16917.400;  203.817;16299.450;-0.01636
 897.09;16815.067;  212.817;16258.117;-0.01482
 897.65;16800.400;  225.483;16079.783;-0.01930
 898.20;16718.733;  228.483;15994.117;-0.01952
 898.76;16650.400;  215.150;15888.117;-0.02063
 899.32;16530.733;  215.483;15824.450;-0.01922
 899.87;16437.067;  206.483;15765.117;-0.01836
 900.43;16229.733;  206.150;15631.783;-0.01652
 900.99;16169.400;  194.483;15508.450;-0.01835
 901.54;15919.733;  181.150;15319.450;-0.01689
 902.10;15821.400;  193.150;15133.117;-0.01956
 902.66;15600.067;  208.483;14918.117;-0.01968
 903.21;15502.400;  221.817;14754.117;-0.02181
 903.77;15338.733;  229.483;14588.450;-0.02212
 904.33;15115.733;  209.483;14443.783;-0.02003
 904.88;14908.067;  198.150;14329.783;-0.01742
 905.44;14823.400;  177.150;14293.450;-0.01601
 906.00;14741.400;  191.150;14324.117;-0.01264
 906.55;14716.067;  207.483;14294.117;-0.01282
 907.11;14608.733;  214.150;14239.117;-0.01130
 907.67;14522.067;  205.817;14016.117;-0.01563
 908.22;14285.733;  196.150;13855.783;-0.01346
 908.78;14110.067;  187.817;13715.783;-0.01248
 909.33;13971.400;  195.483;13616.783;-0.01133
 909.89;14035.067;  192.150;13488.783;-0.01749
 910.45;13937.733;  201.150;13406.783;-0.01712
 911.00;13909.733;  191.483;13362.117;-0.01769
 911.56;13755.400;  203.817;13272.117;-0.01577
 912.12;13696.067;  208.483;13101.117;-0.01959
 912.67;13548.400;  221.483;12951.117;-0.01991
 913.23;13315.067;  194.150;12807.450;-0.01714
 913.78;13145.067;  178.483;12651.783;-0.01684
 914.34;12976.733;  201.483;12642.117;-0.01153
 914.89;12976.400;  216.483;12543.117;-0.01500
 915.45;12950.400;  227.150;12558.117;-0.01360
 916.01;12881.733;  195.483;12386.117;-0.01731
 916.56;12769.400;  201.483;12282.450;-0.01716
 917.12;12653.400;  196.817;12063.117;-0.02108
 917.67;12517.067;  195.483;11981.117;-0.01931
 918.23;12394.067;  182.817;11944.450;-0.01629
 918.78;12259.733;  186.483;11927.117;-0.01213
 919.34;12161.067;  188.817;11843.783;-0.01166
 919.89;12031.067;  199.150;11694.117;-0.01255
 920.45;11905.400;  185.817;11531.783;-0.01407
 921.00;11753.067;  168.817;11330.783;-0.01613
 921.56;11686.400;  176.150;11296.783;-0.01496
 922.11;11560.400;  175.150;11154.450;-0.01577
 922.67;11488.067;  202.483;11048.450;-0.01726
 923.22;11306.733;  191.150;10815.450;-0.01963
 923.78;11129.400;  202.817;10632.117;-0.02023
 924.33;10924.733;  195.817;10497.117;-0.01766
 924.89;10780.400;  196.483;10361.117;-0.01755
 925.44;10590.733;  204.817;10248.117;-0.01457
 926.00;10486.733;  201.150;10018.783;-0.02022
 926.55;10308.067;  205.150; 9867.117;-0.01938
 927.11;10245.733;  188.150; 9720.450;-0.02330
 927.66;10107.067;  177.817; 9717.117;-0.01740
 928.22;10048.067;  174.483; 9670.783;-0.01692
 928.77;10002.067;  190.150; 9636.117;-0.01651
 929.33; 9944.067;  204.150; 9587.783;-0.01618
 929.88; 9894.400;  205.150; 9516.450;-0.01728
 930.43; 9856.400;  182.483; 9493.450;-0.01661
 930.99; 9866.733;  174.817; 9470.117;-0.01815
 931.54; 9843.733;  167.150; 9456.783;-0.01772
 932.10; 9881.400;  190.150; 9473.117;-0.01869
 932.65; 9905.400;  197.150; 9480.117;-0.01945
 933.21; 9965.067;  198.483; 9496.450;-0.02135
 933.76; 9917.733;  187.483; 9472.117;-0.02036
 934.31; 9938.733;  183.150; 9454.117;-0.02213
 934.87; 9878.067;  190.150; 9433.783;-0.02039
 935.42; 9872.733;  199.483; 9431.450;-0.02028
 935.98; 9801.400;  195.483; 9388.450;-0.01908
 936.53; 9776.400;  193.817; 9335.450;-0.02046
 937.08; 9772.067;  191.150; 9347.783;-0.01967
 937.64; 9728.400;  197.817; 9356.783;-0.01727
 938.19; 9755.733;  196.483; 9425.117;-0.01529
 938.74; 9718.733;  199.817; 9340.117;-0.01763
 939.30; 9796.067;  187.150; 9339.783;-0.02113
 939.85; 9713.400;  186.483; 9209.783;-0.02359
 940.40; 9664.400;  173.817; 9251.783;-0.01930
 940.96; 9640.733;  187.150; 9238.450;-0.01889
 941.51; 9668.067;  189.483; 9244.783;-0.01984
 942.06; 9647.400;  197.150; 9160.450;-0.02298
 942.62; 9523.400;  184.817; 9036.783;-0.02324
 943.17; 9383.733;  195.150; 8966.450;-0.02018
 943.72; 9311.067;  180.483; 8903.117;-0.01985
 944.28; 9235.400;  199.483; 8795.117;-0.02169
 944.83; 9191.733;  184.150; 8766.783;-0.02099
 945.38; 9108.400;  194.483; 8735.117;-0.01858
 945.94; 9040.067;  186.483; 8804.450;-0.01171
 946.49; 8996.400;  205.150; 8772.783;-0.01119
 947.04; 8958.733;  208.817; 8738.117;-0.01109
 947.60; 8892.733;  215.150; 8638.117;-0.01293
 948.15; 8858.400;  203.483; 8519.117;-0.01737
 948.70; 8713.400;  212.817; 8413.783;-0.01558
 949.25; 8609.067;  206.150; 8325.117;-0.01493
 949.81; 8516.733;  208.817; 8271.117;-0.01303
 950.36; 8429.733;  198.483; 8157.117;-0.01463
 950.91; 8337.733;  207.150; 8037.783;-0.01632
 951.46; 8096.067;  203.817; 7873.117;-0.01245
 952.02; 7927.400;  207.150; 7734.117;-0.01101
 952.57; 7802.733;  207.150; 7606.450;-0.01137
 953.12; 7707.733;  218.483; 7526.117;-0.01066
 953.67; 7663.067;  218.150; 7443.783;-0.01298
 954.23; 7539.400;  215.817; 7359.450;-0.01080
 954.78; 7446.400;  208.150; 7234.450;-0.01291
 955.33; 7291.400;  218.150; 7119.783;-0.01067
 955.88; 7178.067;  217.150; 6980.117;-0.01253
 956.44; 7114.400;  230.483; 6838.450;-0.01777
 956.99; 7051.067;  228.817; 6737.117;-0.02046
 957.54; 6985.733;  223.817; 6672.783;-0.02058
 958.09; 6905.733;  222.150; 6636.783;-0.01784
 958.64; 6855.733;  206.817; 6607.450;-0.01653
 959.20; 6820.733;  203.483; 6532.450;-0.01934
 959.75; 6778.400;  199.817; 6496.450;-0.01902
 960.30; 6771.067;  218.150; 6441.783;-0.02239
 960.85; 6772.400;  225.150; 6424.450;-0.02372
 961.40; 6791.400;  228.817; 6381.117;-0.02804
 961.95; 6784.733;  231.817; 6360.783;-0.02905
 962.51; 6744.733;  239.483; 6360.117;-0.02647
 963.06; 6755.733;  242.817; 6380.117;-0.02580
 963.61; 6676.400;  234.150; 6314.783;-0.02509
 964.16; 6711.400;  235.150; 6258.450;-0.03149
 964.71; 6681.400;  222.483; 6212.117;-0.03276
 965.26; 6719.400;  213.150; 6253.117;-0.03230
 965.81; 6655.400;  210.817; 6289.117;-0.02541
 966.36; 6654.400;  208.483; 6323.783;-0.02287
 966.92; 6651.733;  216.150; 6305.117;-0.02404
 967.47; 6678.733;  218.483; 6338.117;-0.02352
 968.02; 6684.400;  232.483; 6354.117;-0.02282
 968.57; 6722.400;  234.817; 6375.450;-0.02387
 969.12; 6778.067;  219.817; 6368.783;-0.02799
 969.67; 6819.400;  204.483; 6420.783;-0.02699
 970.22; 6867.067;  194.150; 6469.783;-0.02666
 970.77; 6928.400;  199.817; 6539.117;-0.02588
 971.32; 6993.400;  197.483; 6593.117;-0.02636
 971.87; 7054.400;  198.817; 6693.117;-0.02351
 972.42; 7149.067;  215.150; 6793.117;-0.02289
 972.98; 7232.067;  220.817; 6908.783;-0.02050
 973.53; 7295.400;  231.483; 6996.117;-0.01880
 974.08; 7346.733;  215.483; 7040.450;-0.01907
 974.63; 7453.400;  223.483; 7078.450;-0.02313
 975.18; 7594.067;  218.483; 7103.117;-0.02992
 975.73; 7661.400;  224.817; 7157.450;-0.03048
 976.28; 7678.400;  221.483; 7219.117;-0.02761
 976.83; 7671.400;  221.483; 7315.450;-0.02126
 977.38; 7691.400;  219.483; 7373.783;-0.01886
 977.93; 7746.400;  222.150; 7387.450;-0.02123
 978.48; 7714.067;  228.483; 7365.783;-0.02069
 979.03; 7769.400;  234.817; 7358.117;-0.02438
 979.58; 7745.733;  221.483; 7329.117;-0.02474
 980.13; 7749.067;  207.150; 7367.783;-0.02253
 980.68; 7672.400;  186.483; 7310.450;-0.02152
 981.23; 7633.733;  185.817; 7278.117;-0.02125
 981.78; 7664.733;  207.150; 7207.450;-0.02748
 982.33; 7603.067;  219.150; 7257.117;-0.02084
 982.88; 7538.733;  232.483; 7211.783;-0.01988
 983.43; 7465.067;  218.150; 7145.783;-0.01957
 983.98; 7372.400;  215.150; 6984.117;-0.02422
 984.53; 7297.733;  203.817; 6873.450;-0.02678
 985.08; 7252.400;  209.817; 6835.783;-0.02648
 985.63; 7238.733;  211.150; 6787.117;-0.02885
 986.18; 7134.067;  218.817; 6756.783;-0.02437
 986.73; 6989.067;  218.483; 6610.450;-0.02499
 987.27; 6954.400;  227.483; 6521.117;-0.02891
 987.82; 6890.400;  238.483; 6431.783;-0.03102
 988.37; 6806.067;  243.150; 6400.783;-0.02768
 988.92; 6624.400;  234.150; 6351.117;-0.01898
 989.47; 6561.067;  214.483; 6285.117;-0.01931
 990.02; 6443.733;  208.483; 6199.117;-0.01738
 990.57; 6405.733;  208.150; 6083.117;-0.02322
 991.12; 6319.733;  215.150; 6044.450;-0.02004
 991.67; 6311.067;  213.817; 5969.117;-0.02507
 992.22; 6198.733;  200.483; 5915.450;-0.02101
 992.77; 6080.067;  200.150; 5802.450;-0.02100
 993.31; 5990.400;  204.817; 5735.783;-0.01955
 993.86; 5948.067;  230.483; 5683.783;-0.02055
 994.41; 5893.733;  235.150; 5580.117;-0.02476
 994.96; 5758.067;  226.483; 5473.117;-0.02297
 995.51; 5607.400;  218.817; 5377.783;-0.01891
 996.06; 5509.733;  208.483; 5293.783;-0.01806
 996.61; 5484.067;  222.483; 5201.783;-0.02395
 997.15; 5384.400;  236.150; 5083.450;-0.02616
 997.70; 5230.733;  241.150; 4965.117;-0.02376
 998.25; 5056.733;  247.483; 4873.450;-0.01687
 998.80; 4931.067;  248.483; 4740.117;-0.01808
 999.35; 4786.733;  249.483; 4623.450;-0.01592
 999.90; 4606.067;  236.150; 4455.117;-0.01527
1000.44; 4484.733;  224.483; 4340.450;-0.01496
1000.99; 4357.733;  232.483; 4190.783;-0.01794
1001.54; 4249.067;  237.150; 4067.450;-0.02012
1002.09; 4112.067;  231.817; 3939.117;-0.01980
1002.64; 4019.733;  238.483; 3855.450;-0.01929
1003.18; 3913.067;  240.483; 3766.783;-0.01765
1003.73; 3813.733;  238.483; 3661.450;-0.01890
1004.28; 3716.067;  226.817; 3584.450;-0.01670
1004.83; 3635.400;  209.483; 3488.117;-0.01908
1005.38; 3569.733;  210.150; 3420.783;-0.01969
1005.92; 3533.733;  219.150; 3321.783;-0.02870
1006.47; 3450.067;  236.817; 3231.783;-0.03055
1007.02; 3376.733;  235.483; 3140.117;-0.03401
1007.57; 3252.400;  222.817; 3087.450;-0.02431
1008.11; 3161.733;  211.817; 3028.450;-0.02008
1008.66; 3100.400;  205.150; 2973.450;-0.01947
1009.21; 3025.400;  192.483; 2907.783;-0.01842
1009.75; 3004.733;  177.817; 2862.117;-0.02248
1010.30; 2897.067;  170.150; 2793.117;-0.01688
1010.85; 2841.067;  176.817; 2712.783;-0.02143
1011.40; 2749.733;  204.150; 2628.450;-0.02120
1011.94; 2680.400;  221.817; 2545.783;-0.02446
1012.49; 2612.733;  216.483; 2464.450;-0.02774
1013.04; 2520.067;  194.150; 2362.117;-0.03054
1013.58; 2449.400;  184.150; 2325.117;-0.02451
1014.13; 2365.067;  188.483; 2268.117;-0.01979
1014.68; 2333.733;  196.483; 2233.450;-0.02087
1015.23; 2282.400;  203.150; 2181.450;-0.02161
1015.77; 2238.067;  199.817; 2113.117;-0.02747
1016.32; 2146.733;  204.817; 2072.450;-0.01694
1016.87; 2068.733;  209.483; 2012.783;-0.01327
1017.41; 2057.067;  206.817; 1977.450;-0.01910
1017.96; 2032.067;  194.817; 1953.450;-0.01899
1018.50; 2029.067;  186.483; 1926.450;-0.02489
1019.05; 1962.733;  188.483; 1903.450;-0.01476
1019.60; 1872.400;  182.817; 1815.783;-0.01480
1020.14; 1832.067;  196.150; 1752.783;-0.02157
1020.69; 1762.733;  196.150; 1698.117;-0.01829
1021.24; 1755.400;  209.483; 1650.450;-0.03053
1021.78; 1686.733;  188.483; 1620.450;-0.01965
1022.33; 1659.733;  190.150; 1592.450;-0.02035
1022.87; 1632.067;  182.817; 1587.783;-0.01348
1023.42; 1592.067;  198.150; 1567.117;-0.00784
1023.97; 1535.067;  200.150; 1516.117;-0.00621
1024.51; 1488.067;  212.150; 1465.117;-0.00788
1025.06; 1441.400;  200.483; 1401.117;-0.01433
1025.60; 1401.400;  198.817; 1340.783;-0.02246
1026.15; 1369.400;  181.150; 1307.783;-0.02313
1026.70; 1334.733;  185.483; 1284.783;-0.01930
1027.24; 1322.067;  195.483; 1279.783;-0.01661
1027.79; 1278.733;  200.483; 1270.450;-0.00335
1028.33; 1280.067;  197.483; 1252.450;-0.01122
1028.88; 1250.733;  188.817; 1215.450;-0.01468
1029.42; 1234.733;  208.150; 1198.450;-0.01563
1029.97; 1199.067;  197.817; 1156.450;-0.01889
1030.51; 1176.733;  190.150; 1127.117;-0.02241
1031.06; 1168.067;  182.817; 1088.783;-0.03643
1031.61; 1142.067;  192.483; 1063.117;-0.03770
1032.15; 1129.400;  210.150; 1050.450;-0.03900
1032.70; 1099.067;  202.817; 1024.117;-0.03793
1033.24; 1086.067;  206.483; 1018.117;-0.03492
1033.79; 1071.733;  200.817; 1020.450;-0.02636
1034.33; 1074.067;  199.817; 1016.450;-0.02961
1034.88; 1053.067;  201.817; 1008.783;-0.02320
1035.42; 1033.733;  202.817;  979.450;-0.02934
1035.97;  997.733;  204.483;  950.450;-0.02669
1036.51;  983.067;  206.483;  931.450;-0.02987
1037.06;  968.400;  200.817;  944.117;-0.01396
1037.60;  974.067;  207.150;  948.783;-0.01456
1038.14;  983.733;  204.150;  928.783;-0.03174
1038.69;  993.067;  222.150;  927.783;-0.03843
1039.23; 1004.400;  234.483;  935.783;-0.04054
1039.78;  989.067;  235.150;  948.783;-0.02385
1040.32;  957.067;  224.483;  915.783;-0.02519
1040.87;  936.400;  208.483;  887.117;-0.03045
1041.41;  922.400;  198.150;  864.117;-0.03644
1041.96;  925.400;  200.817;  882.783;-0.02633
1042.50;  915.067;  197.817;  893.117;-0.01350
1043.04;  922.400;  213.817;  899.117;-0.01451
1043.59;  929.400;  217.150;  867.450;-0.03952
1044.13;  909.733;  212.483;  869.450;-0.02585
1044.68;  903.400;  205.817;  862.117;-0.02649
1045.22;  893.067;  199.150;  873.783;-0.01224
1045.76;  898.733;  201.817;  869.450;-0.01864
1046.31;  854.733;  193.483;  861.783; 0.00461
1046.85;  842.067;  200.483;  842.117; 0.00003
1047.40;  828.400;  202.483;  813.783;-0.01026
1047.94;  823.400;  215.150;  808.783;-0.01056
1048.48;  823.067;  211.150;  810.117;-0.00929
1049.03;  815.733;  214.483;  793.450;-0.01640
1049.57;  852.733;  229.150;  787.117;-0.04829
1050.11;  825.733;  222.817;  774.117;-0.03887
1050.66;  837.733;  218.483;  779.117;-0.04319
1051.20;  821.400;  206.483;  794.450;-0.01946
1051.74;  811.733;  200.817;  788.117;-0.01712
1052.29;  783.733;  200.150;  780.783;-0.00220
1052.83;  757.067;  199.150;  748.117;-0.00702
1053.37;  777.067;  224.817;  744.783;-0.02616
1053.92;  773.400;  234.150;  739.783;-0.02795
1054.46;  797.067;  236.483;  734.117;-0.05173
1055.00;  786.400;  231.483;  739.117;-0.03868
1055.55;  768.400;  230.817;  738.117;-0.02518
1056.09;  742.400;  223.817;  747.783; 0.00449
1056.63;  730.067;  215.817;  711.783;-0.01572
1057.17;  738.733;  216.483;  709.117;-0.02535
1057.72;  724.733;  225.150;  697.450;-0.02439
1058.26;  684.400;  223.483;  705.783; 0.01969
1058.80;  671.400;  229.817;  700.450; 0.02767
1059.35;  663.400;  230.483;  686.450; 0.02253
1059.89;  677.733;  230.150;  672.450;-0.00516
1060.43;  661.400;  227.817;  654.783;-0.00668
1060.97;  659.067;  223.817;  667.117; 0.00796
1061.52;  659.067;  231.150;  682.450; 0.02311
1062.06;  658.400;  231.483;  671.450; 0.01308
1062.60;  652.400;  236.483;  658.450; 0.00627
1063.14;  666.400;  232.483;  640.783;-0.02643
1063.69;  661.733;  216.483;  640.117;-0.02161
1064.23;  653.733;  208.817;  619.783;-0.03447
1064.77;  614.733;  200.483;  598.450;-0.01742
1065.31;  589.067;  201.817;  577.450;-0.01323
1065.85;  582.733;  206.483;  567.117;-0.01841
1066.40;  583.733;  205.150;  579.450;-0.00494
1066.94;  591.733;  217.817;  579.117;-0.01491
1067.48;  600.067;  209.150;  587.783;-0.01387
1068.02;  611.733;  233.817;  562.450;-0.06068
1068.56;  606.067;  216.817;  564.783;-0.04869
1069.10;  579.400;  212.817;  549.783;-0.03659
1069.65;  562.067;  195.817;  566.450; 0.00517
1070.19;  562.733;  208.817;  566.783; 0.00494
1070.73;  581.733;  223.817;  582.783; 0.00127
1071.27;  562.400;  215.817;  567.117; 0.00587
1071.81;  565.733;  207.150;  562.117;-0.00440
1072.35;  565.733;  201.817;  549.117;-0.02030
1072.90;  573.400;  197.150;  546.783;-0.03186
1073.44;  567.067;  202.817;  540.117;-0.03338
1073.98;  545.400;  206.150;  531.450;-0.01824
1074.52;  539.733;  224.483;  538.783;-0.00131
1075.06;  529.733;  218.483;  542.450; 0.01739
1075.60;  520.400;  207.483;  531.450; 0.01507
1076.14;  527.733;  204.817;  514.117;-0.01871
1076.68;  528.733;  207.150;  504.450;-0.03410
1077.22;  528.400;  225.817;  504.783;-0.03529
1077.76;  512.733;  214.817;  498.117;-0.02185
1078.31;  502.733;  229.817;  499.783;-0.00472
1078.85;  510.400;  226.483;  517.117; 0.01015
1079.39;  525.733;  243.817;  525.450;-0.00044
1079.93;  529.067;  237.817;  507.783;-0.03296
1080.47;  526.067;  227.483;  476.450;-0.07892
1081.01;  517.067;  216.150;  474.783;-0.06576
1081.55;  523.400;  208.483;  488.783;-0.05057
1082.09;  512.400;  205.817;  488.783;-0.03481
1082.63;  516.733;  210.150;  496.450;-0.02973
1083.17;  510.733;  221.150;  500.783;-0.01518
1083.71;  517.400;  228.817;  501.450;-0.02469
1084.25;  490.400;  224.483;  471.117;-0.03269
1084.79;  480.067;  214.483;  446.450;-0.05878
1085.33;  467.067;  202.817;  450.783;-0.02762
1085.87;  478.067;  199.483;  468.450;-0.01526
1086.41;  484.067;  214.483;  471.450;-0.02082
1086.95;  494.400;  222.150;  467.117;-0.04586
1087.49;  486.067;  225.817;  454.783;-0.05562
1088.03;  471.733;  216.817;  454.117;-0.03110
1088.57;  464.067;  219.817;  450.783;-0.02429
1089.11;  461.067;  222.150;  448.117;-0.02420
1089.65;  480.733;  233.150;  458.783;-0.04032
1090.19;  489.733;  238.483;  468.117;-0.03907
1090.73;  489.067;  240.483;  471.783;-0.03130
1091.27;  469.400;  238.817;  466.117;-0.00623
1091.81;  458.733;  238.483;  458.117;-0.00122
1092.35;  474.067;  247.483;  461.450;-0.02488
1092.89;  470.400;  232.150;  457.450;-0.02427
1093.43;  463.400;  223.817;  445.783;-0.03317
1093.97;  446.733;  210.150;  441.117;-0.01043
1094.51;  456.733;  208.483;  440.450;-0.02946
1095.04;  447.733;  218.483;  442.783;-0.00948
1095.58;  448.733;  238.817;  436.783;-0.02545
1096.12;  440.733;  242.817;  428.783;-0.02705
1096.66;  449.733;  239.817;  430.450;-0.04185
1097.20;  451.400;  235.817;  449.450;-0.00395
1097.74;  448.733;  246.817;  456.783; 0.01698
1098.28;  443.733;  235.817;  457.117; 0.02709
1098.82;  434.400;  230.483;  453.117; 0.03814
1099.36;  427.733;  228.150;  446.450; 0.03893
1099.89;  420.067;  230.150;  447.450; 0.05850

