
Integration time [ms]:   0.300
Averaging Nr. [scans]: 1
Smoothing Nr. [pixels]: 1
Data measured with spectrometer [name]: 1906252U1
Wave   ;Sample   ;Dark     ;Reference;Absorbance
[nm]   ;[counts] ;[counts] ;[counts] ;[A.U]

 161.30;  282.841;  271.207;  271.637; 0.00000
 161.90;  272.550;  265.524;  261.712; 0.00000
 162.51;  268.592;  259.038;  260.433;-0.83585
 163.11;  270.667;  265.693;  251.834; 0.00000
 163.71;  271.966;  276.696;  266.803; 0.00000
 164.31;  279.308;  294.270;  273.488; 0.00000
 164.91;  286.903;  288.393;  287.410; 0.00000
 165.52;  278.098;  277.299;  279.261; 0.39030
 166.12;  266.571;  271.979;  273.718; 5.00000
 166.72;  261.611;  272.971;  259.755; 0.00000
 167.32;  261.560;  271.656;  271.040; 0.00000
 167.93;  257.382;  261.266;  267.518; 5.00000
 168.53;  249.154;  254.112;  260.296; 5.00000
 169.13;  259.780;  264.427;  257.261; 0.00000
 169.73;  266.537;  271.677;  266.351; 0.00000
 170.33;  306.018;  291.614;  320.561; 0.30312
 170.94;  320.749;  317.756;  347.746; 1.00084
 171.54;  351.830;  335.278;  387.239; 0.49683
 172.14;  358.122;  338.926;  375.538; 0.28041
 172.74;  361.108;  324.358;  373.181; 0.12337
 173.34;  349.490;  319.589;  355.569; 0.08037
 173.95;  335.847;  309.596;  343.923; 0.11648
 174.55;  334.152;  318.289;  355.228; 0.36709
 175.15;  339.078;  320.689;  367.155; 0.40257
 175.75;  336.792;  322.370;  380.195; 0.60309
 176.35;  357.286;  332.415;  382.036; 0.29998
 176.95;  367.807;  327.740;  392.907; 0.21124
 177.56;  363.919;  327.608;  398.355; 0.28967
 178.16;  349.871;  316.738;  399.298; 0.39651
 178.76;  352.071;  316.306;  398.487; 0.36131
 179.36;  363.605;  310.874;  401.343; 0.23444
 179.96;  360.748;  304.800;  395.813; 0.21131
 180.56;  347.900;  308.938;  392.969; 0.33380
 181.17;  357.032;  318.009;  403.448; 0.34034
 181.77;  370.092;  318.897;  417.181; 0.28325
 182.37;  380.025;  306.653;  404.111; 0.12329
 182.97;  393.370;  319.309;  413.789; 0.10575
 183.57;  413.862;  323.525;  427.944; 0.06291
 184.17;  439.027;  336.736;  473.104; 0.12487
 184.78;  429.181;  316.624;  484.587; 0.17384
 185.38;  431.423;  315.012;  504.833; 0.21235
 185.98;  444.217;  315.783;  504.638; 0.16745
 186.58;  467.023;  316.598;  510.449; 0.11015
 187.18;  469.582;  313.002;  491.678; 0.05733
 187.78;  479.638;  324.256;  526.070; 0.11355
 188.38;  484.395;  331.840;  541.159; 0.13738
 188.98;  482.768;  337.804;  574.199; 0.21238
 189.59;  483.110;  332.575;  567.529; 0.19335
 190.19;  483.640;  326.870;  580.708; 0.20929
 190.79;  482.864;  326.914;  573.939; 0.19976
 191.39;  468.867;  317.159;  564.285; 0.21191
 191.99;  472.621;  322.498;  545.363; 0.17159
 192.59;  478.527;  317.307;  539.929; 0.14015
 193.19;  470.631;  313.765;  525.712; 0.13070
 193.79;  450.862;  325.164;  530.280; 0.21267
 194.39;  446.922;  328.250;  517.658; 0.20305
 195.00;  454.417;  327.216;  511.139; 0.16014
 195.60;  452.336;  305.566;  480.732; 0.07681
 196.20;  435.402;  304.088;  469.473; 0.10018
 196.80;  410.256;  305.278;  453.989; 0.15124
 197.40;  395.780;  313.686;  455.186; 0.23645
 198.00;  390.044;  320.693;  452.457; 0.27875
 198.60;  374.870;  317.270;  442.943; 0.33881
 199.20;  373.116;  312.435;  427.513; 0.27794
 199.80;  368.034;  303.957;  416.753; 0.24559
 200.40;  360.813;  299.492;  396.868; 0.20084
 201.00;  342.703;  293.841;  371.434; 0.20085
 201.60;  339.668;  292.845;  340.403; 0.00676
 202.21;  346.171;  298.995;  352.240; 0.05256
 202.81;  336.489;  303.760;  367.883; 0.29208
 203.41;  314.204;  301.801;  377.921; 0.78799
 204.01;  313.226;  296.447;  373.611; 0.66264
 204.61;  334.420;  287.965;  374.799; 0.27166
 205.21;  354.293;  280.528;  391.328; 0.17669
 205.81;  344.204;  276.000;  394.567; 0.24015
 206.41;  332.632;  281.190;  389.667; 0.32402
 207.01;  321.471;  291.585;  373.516; 0.43799
 207.61;  317.170;  290.832;  349.221; 0.34576
 208.21;  307.708;  294.007;  340.088; 0.52677
 208.81;  305.668;  285.376;  350.048; 0.50339
 209.41;  301.895;  292.971;  355.294; 0.84409
 210.01;  296.089;  286.985;  361.835; 0.91495
 210.61;  300.915;  290.534;  351.990; 0.77232
 211.21;  294.489;  293.399;  356.219; 1.76082
 211.81;  307.877;  300.157;  352.258; 0.82923
 212.41;  292.798;  301.896;  344.513; 5.00000
 213.01;  310.562;  296.332;  351.625; 0.58945
 213.61;  309.940;  285.263;  357.339; 0.46549
 214.21;  322.022;  282.939;  368.411; 0.33984
 214.81;  322.007;  278.704;  361.387; 0.28090
 215.41;  327.934;  282.466;  362.645; 0.24635
 216.01;  320.810;  278.247;  362.189; 0.29495
 216.61;  311.407;  287.920;  357.792; 0.47349
 217.21;  300.998;  290.599;  357.391; 0.80773
 217.81;  307.412;  297.221;  367.800; 0.84047
 218.41;  325.695;  301.628;  379.081; 0.50762
 219.01;  326.444;  307.801;  388.505; 0.63638
 219.61;  326.179;  301.739;  384.906; 0.53186
 220.21;  314.792;  297.568;  378.507; 0.67203
 220.81;  319.669;  283.737;  372.713; 0.39379
 221.41;  321.313;  284.091;  376.024; 0.39267
 222.01;  317.675;  280.426;  372.049; 0.39089
 222.61;  323.402;  298.953;  367.451; 0.44742
 223.21;  316.369;  301.813;  357.103; 0.57962
 223.81;  313.946;  301.952;  360.676; 0.68982
 224.41;  289.913;  281.875;  343.618; 0.88544
 225.01;  299.554;  269.317;  340.250; 0.37031
 225.61;  310.325;  274.108;  341.033; 0.26667
 226.21;  321.197;  273.112;  349.918; 0.20338
 226.81;  312.117;  286.490;  349.175; 0.38847
 227.41;  310.891;  284.059;  344.282; 0.35110
 228.01;  326.860;  302.172;  351.241; 0.29833
 228.61;  352.440;  306.727;  360.474; 0.07031
 229.21;  342.999;  303.825;  362.700; 0.17694
 229.81;  337.748;  308.998;  372.791; 0.34613
 230.41;  320.353;  299.055;  383.396; 0.59771
 231.01;  328.227;  300.808;  405.942; 0.58369
 231.61;  313.379;  287.307;  401.095; 0.63992
 232.21;  313.116;  300.328;  383.489; 0.81310
 232.81;  305.232;  296.307;  370.928; 0.92225
 233.41;  314.633;  302.578;  372.995; 0.76651
 234.00;  323.546;  298.240;  379.918; 0.50888
 234.60;  326.912;  290.487;  363.623; 0.30273
 235.20;  335.216;  295.152;  359.264; 0.20418
 235.80;  323.052;  295.330;  365.432; 0.40290
 236.40;  336.336;  302.765;  379.044; 0.35643
 237.00;  329.775;  303.584;  384.824; 0.49161
 237.60;  328.591;  294.000;  377.651; 0.38350
 238.20;  313.157;  295.121;  389.214; 0.71742
 238.80;  308.290;  274.112;  389.668; 0.52904
 239.40;  323.040;  279.177;  403.402; 0.45211
 240.00;  325.611;  284.599;  402.640; 0.45912
 240.59;  338.601;  298.133;  401.312; 0.40648
 241.19;  325.362;  297.989;  399.745; 0.57024
 241.79;  326.335;  288.710;  384.715; 0.40682
 242.39;  333.534;  292.222;  383.909; 0.34624
 242.99;  342.408;  286.642;  375.121; 0.20047
 243.59;  337.038;  289.230;  388.763; 0.31847
 244.19;  328.175;  286.160;  385.560; 0.37398
 244.79;  325.281;  287.511;  384.652; 0.41026
 245.39;  332.185;  287.293;  395.554; 0.38231
 245.98;  330.083;  273.053;  391.453; 0.31725
 246.58;  329.245;  274.487;  389.290; 0.32150
 247.18;  334.311;  285.342;  384.364; 0.30581
 247.78;  327.048;  295.696;  398.758; 0.51684
 248.38;  328.122;  288.656;  421.162; 0.52601
 248.98;  329.931;  277.356;  419.988; 0.43343
 249.58;  335.948;  265.673;  430.671; 0.37068
 250.17;  341.799;  275.285;  426.842; 0.35766
 250.77;  331.923;  283.143;  431.967; 0.48443
 251.37;  312.366;  286.929;  425.089; 0.73491
 251.97;  302.759;  270.293;  429.805; 0.69137
 252.57;  310.179;  265.298;  436.882; 0.58241
 253.17;  330.793;  272.929;  449.172; 0.48370
 253.77;  340.907;  284.186;  466.282; 0.50656
 254.36;  344.747;  295.474;  468.774; 0.54620
 254.96;  339.870;  295.333;  480.567; 0.61899
 255.56;  321.272;  288.604;  484.301; 0.77747
 256.16;  325.488;  278.462;  506.509; 0.68569
 256.76;  316.754;  277.524;  496.109; 0.74601
 257.36;  335.585;  276.735;  508.603; 0.59549
 257.95;  321.700;  264.992;  503.713; 0.62425
 258.55;  331.732;  264.239;  518.084; 0.57531
 259.15;  322.439;  260.564;  510.454; 0.60623
 259.75;  324.648;  269.345;  523.998; 0.66320
 260.35;  324.940;  267.461;  538.318; 0.67323
 260.94;  320.696;  268.819;  539.764; 0.71790
 261.54;  330.043;  275.530;  547.771; 0.69846
 262.14;  334.048;  279.723;  553.422; 0.70227
 262.74;  357.142;  296.084;  592.169; 0.68567
 263.34;  349.904;  285.302;  604.600; 0.69395
 263.93;  340.510;  271.414;  619.201; 0.70186
 264.53;  326.759;  269.158;  628.783; 0.79543
 265.13;  325.196;  270.950;  628.566; 0.81904
 265.73;  325.102;  275.426;  648.466; 0.87561
 266.33;  337.375;  278.566;  678.397; 0.83243
 266.92;  340.660;  275.029;  689.673; 0.80057
 267.52;  351.710;  279.954;  705.726; 0.77332
 268.12;  342.915;  273.264;  717.281; 0.80447
 268.72;  350.132;  281.951;  749.175; 0.83586
 269.31;  360.793;  293.596;  782.505; 0.86188
 269.91;  362.981;  296.813;  783.686; 0.86677
 270.51;  367.059;  298.884;  823.747; 0.88642
 271.11;  365.005;  296.018;  844.685; 0.90055
 271.70;  372.663;  281.274;  877.686; 0.81465
 272.30;  375.552;  270.568;  887.924; 0.76941
 272.90;  373.378;  264.784;  909.412; 0.77350
 273.50;  370.166;  274.785;  916.521; 0.82789
 274.09;  379.175;  285.359;  947.539; 0.84870
 274.69;  372.646;  293.425;  961.690; 0.92611
 275.29;  378.337;  297.126; 1011.041; 0.94403
 275.89;  368.484;  301.162; 1057.168; 1.05037
 276.48;  386.697;  306.441; 1108.365; 0.99966
 277.08;  397.338;  303.217; 1149.330; 0.95374
 277.68;  404.596;  300.562; 1156.928; 0.91548
 278.28;  407.399;  297.934; 1188.748; 0.91051
 278.87;  408.529;  305.120; 1219.213; 0.94643
 279.47;  414.678;  316.402; 1279.019; 0.99100
 280.07;  432.865;  311.564; 1306.537; 0.91395
 280.66;  436.463;  305.599; 1329.806; 0.89357
 281.26;  449.933;  299.502; 1356.605; 0.84678
 281.86;  451.793;  299.353; 1408.460; 0.86187
 282.46;  447.662;  289.111; 1464.667; 0.87007
 283.05;  464.178;  270.001; 1525.842; 0.81074
 283.65;  470.919;  269.267; 1577.248; 0.81200
 284.25;  510.012;  276.537; 1628.707; 0.76279
 284.84;  510.443;  297.639; 1660.819; 0.80657
 285.44;  550.657;  304.585; 1722.349; 0.76054
 286.04;  558.945;  306.626; 1767.304; 0.76261
 286.63;  568.179;  299.604; 1827.551; 0.75504
 287.23;  556.547;  285.934; 1878.582; 0.76977
 287.83;  574.946;  285.987; 1956.635; 0.76205
 288.42;  618.113;  282.947; 2012.456; 0.71266
 289.02;  642.338;  281.018; 2081.351; 0.69746
 289.62;  659.338;  274.153; 2105.373; 0.67707
 290.21;  675.179;  278.965; 2173.882; 0.67966
 290.81;  704.810;  296.139; 2171.832; 0.66179
 291.41;  712.923;  301.675; 2217.279; 0.66820
 292.00;  726.567;  287.695; 2273.257; 0.65555
 292.60;  745.559;  266.816; 2355.570; 0.63979
 293.20;  770.269;  269.053; 2441.953; 0.63701
 293.79;  780.508;  275.331; 2498.541; 0.64354
 294.39;  825.421;  284.326; 2544.463; 0.62086
 294.99;  844.395;  280.435; 2588.095; 0.61192
 295.58;  884.941;  284.687; 2619.961; 0.59000
 296.18;  875.218;  271.100; 2672.236; 0.59929
 296.78;  904.506;  267.474; 2741.524; 0.58925
 297.37;  926.222;  256.039; 2819.912; 0.58270
 297.97;  968.087;  255.858; 2927.442; 0.57415
 298.57; 1018.866;  262.727; 2989.557; 0.55706
 299.16; 1052.749;  278.359; 3083.789; 0.55904
 299.76; 1086.658;  281.775; 3176.366; 0.55585
 300.35; 1113.001;  281.214; 3269.362; 0.55539
 300.95; 1151.095;  278.404; 3324.462; 0.54288
 301.55; 1187.131;  287.229; 3346.846; 0.53147
 302.14; 1241.643;  278.314; 3431.366; 0.51496
 302.74; 1305.474;  277.164; 3537.862; 0.50119
 303.33; 1353.860;  277.506; 3665.575; 0.49800
 303.93; 1398.897;  284.053; 3763.621; 0.49431
 304.53; 1429.348;  290.889; 3809.743; 0.49008
 305.12; 1470.351;  285.666; 3889.067; 0.48311
 305.72; 1525.702;  304.345; 3962.749; 0.47645
 306.31; 1536.107;  292.556; 4062.826; 0.48171
 306.91; 1556.186;  290.122; 4183.574; 0.48788
 307.51; 1563.684;  280.000; 4278.734; 0.49346
 308.10; 1636.668;  295.710; 4394.048; 0.48519
 308.70; 1684.353;  291.190; 4468.751; 0.47692
 309.29; 1737.077;  287.634; 4547.826; 0.46823
 309.89; 1775.273;  264.902; 4638.675; 0.46177
 310.48; 1849.708;  273.673; 4739.754; 0.45236
 311.08; 1905.735;  268.620; 4876.118; 0.44939
 311.68; 1958.985;  273.221; 4959.384; 0.44402
 312.27; 1996.218;  278.703; 5074.278; 0.44594
 312.87; 2042.130;  271.869; 5225.848; 0.44692
 313.46; 2128.627;  276.691; 5385.013; 0.44065
 314.06; 2205.504;  276.193; 5529.885; 0.43506
 314.65; 2265.850;  282.238; 5632.559; 0.43092
 315.25; 2293.552;  283.262; 5774.255; 0.43639
 315.85; 2337.840;  277.637; 5914.876; 0.43716
 316.44; 2399.236;  287.913; 6071.938; 0.43768
 317.04; 2471.955;  295.255; 6216.984; 0.43465
 317.63; 2525.637;  310.823; 6400.341; 0.43925
 318.23; 2575.243;  298.737; 6546.296; 0.43844
 318.82; 2611.838;  293.221; 6674.883; 0.43970
 319.42; 2731.840;  273.276; 6781.545; 0.42278
 320.01; 2795.593;  280.055; 6929.646; 0.42216
 320.61; 2865.947;  290.511; 7164.652; 0.42637
 321.20; 2886.925;  285.758; 7272.939; 0.42913
 321.80; 2980.690;  292.860; 7497.718; 0.42822
 322.39; 3084.819;  275.154; 7636.540; 0.41831
 322.99; 3170.828;  275.755; 7857.556; 0.41811
 323.58; 3244.488;  286.597; 7977.531; 0.41500
 324.18; 3287.645;  287.901; 8124.673; 0.41705
 324.77; 3338.309;  292.485; 8318.013; 0.42077
 325.37; 3402.794;  278.984; 8442.167; 0.41717
 325.96; 3495.593;  276.253; 8588.958; 0.41198
 326.56; 3568.395;  298.768; 8771.095; 0.41350
 327.15; 3629.404;  300.036; 8947.778; 0.41454
 327.75; 3684.494;  300.925; 9129.536; 0.41652
 328.34; 3754.808;  272.723; 9291.838; 0.41332
 328.94; 3847.217;  266.072; 9447.905; 0.40891
 329.53; 3915.522;  277.765; 9658.876; 0.41142
 330.13; 4017.429;  293.098; 9872.460; 0.41029
 330.72; 4087.518;  297.428;10112.576; 0.41325
 331.32; 4185.345;  296.807;10347.750; 0.41242
 331.91; 4293.995;  286.021;10578.045; 0.40958
 332.51; 4376.069;  290.846;10832.428; 0.41169
 333.10; 4474.330;  280.941;11112.686; 0.41213
 333.69; 4590.843;  268.720;11343.870; 0.40865
 334.29; 4617.941;  259.020;11372.294; 0.40646
 334.88; 4641.209;  263.526;11404.218; 0.40567
 335.48; 4612.495;  274.151;11347.513; 0.40696
 336.07; 4653.018;  277.361;11521.065; 0.40987
 336.67; 4685.058;  271.793;11561.792; 0.40793
 337.26; 4732.006;  270.478;11724.744; 0.40948
 337.86; 4848.690;  274.661;11795.073; 0.40117
 338.45; 4894.510;  285.081;11996.201; 0.40495
 339.04; 4866.358;  280.248;12122.714; 0.41200
 339.64; 4881.810;  279.247;12324.855; 0.41783
 340.23; 4974.845;  276.541;12444.594; 0.41328
 340.83; 5096.585;  283.446;12579.002; 0.40732
 341.42; 5119.042;  284.034;12728.085; 0.41056
 342.02; 5176.349;  280.810;12860.717; 0.40988
 342.61; 5232.435;  285.029;12994.842; 0.40976
 343.20; 5333.273;  280.703;13173.363; 0.40683
 343.80; 5380.108;  275.024;13326.514; 0.40766
 344.39; 5463.715;  277.525;13574.777; 0.40891
 344.99; 5524.856;  284.701;13698.586; 0.40821
 345.58; 5605.268;  281.629;13941.331; 0.40923
 346.17; 5667.553;  272.425;14086.941; 0.40833
 346.77; 5763.787;  263.601;14425.499; 0.41074
 347.36; 5873.032;  267.766;14640.403; 0.40894
 347.96; 5922.705;  271.456;14918.073; 0.41359
 348.55; 5991.036;  272.039;15018.413; 0.41137
 349.14; 6047.216;  269.152;15148.264; 0.41079
 349.74; 6177.930;  282.193;15379.635; 0.40837
 350.33; 6214.915;  292.264;15619.281; 0.41294
 350.92; 6271.714;  292.029;15990.758; 0.41919
 351.52; 6336.000;  276.988;16197.719; 0.41956
 352.11; 6451.315;  277.642;16449.038; 0.41820
 352.70; 6545.745;  293.221;16652.467; 0.41771
 353.30; 6582.640;  299.069;16923.354; 0.42254
 353.89; 6658.441;  289.556;17199.826; 0.42409
 354.49; 6753.733;  295.537;17471.125; 0.42480
 355.08; 6907.519;  303.789;17648.240; 0.41937
 355.67; 7015.492;  306.509;17850.877; 0.41748
 356.27; 7146.035;  292.678;18013.082; 0.41257
 356.86; 7172.668;  288.376;18230.048; 0.41600
 357.45; 7239.284;  297.756;18507.331; 0.41884
 358.05; 7264.241;  297.214;18684.613; 0.42147
 358.64; 7378.590;  292.504;18894.298; 0.41915
 359.23; 7463.449;  289.300;19081.825; 0.41821
 359.83; 7518.009;  289.121;19433.380; 0.42297
 360.42; 7632.556;  293.174;19722.600; 0.42280
 361.01; 7684.117;  287.355;19981.487; 0.42530
 361.61; 7785.840;  287.502;20183.522; 0.42380
 362.20; 7837.039;  294.987;20496.718; 0.42790
 362.79; 7924.604;  302.910;20634.303; 0.42612
 363.38; 7931.138;  301.613;20815.514; 0.42955
 363.98; 8008.350;  289.171;20943.715; 0.42744
 364.57; 8098.785;  277.744;21176.149; 0.42685
 365.16; 8238.120;  288.573;21351.502; 0.42318
 365.76; 8310.230;  293.720;21537.287; 0.42324
 366.35; 8322.500;  294.920;21731.542; 0.42657
 366.94; 8398.764;  286.459;21913.791; 0.42586
 367.53; 8411.435;  286.426;22067.466; 0.42825
 368.13; 8537.116;  291.994;22246.489; 0.42533
 368.72; 8556.584;  285.482;22413.295; 0.42738
 369.31; 8603.648;  292.281;22597.374; 0.42873
 369.91; 8612.143;  283.382;22746.877; 0.43090
 370.50; 8718.679;  291.699;22820.059; 0.42706
 371.09; 8842.882;  278.017;22946.909; 0.42271
 371.68; 8935.302;  286.967;23106.324; 0.42137
 372.28; 8938.887;  294.984;23340.584; 0.42588
 372.87; 8920.468;  297.367;23443.502; 0.42882
 373.46; 8994.568;  297.723;23614.255; 0.42830
 374.05; 9112.479;  287.889;23758.158; 0.42482
 374.65; 9252.482;  290.440;23950.173; 0.42160
 375.24; 9283.323;  272.918;24146.349; 0.42317
 375.83; 9312.339;  275.848;24331.370; 0.42521
 376.42; 9364.182;  273.516;24515.563; 0.42597
 377.02; 9439.120;  293.907;24527.502; 0.42322
 377.61; 9540.957;  288.112;24762.668; 0.42244
 378.20; 9583.751;  297.747;24944.118; 0.42392
 378.79; 9674.520;  297.015;25086.217; 0.42218
 379.38; 9737.754;  282.191;25204.109; 0.42089
 379.98; 9828.123;  267.243;25344.469; 0.41878
 380.57; 9937.050;  272.112;25606.751; 0.41852
 381.16;10039.413;  291.609;25727.129; 0.41653
 381.75;10088.769;  289.589;25767.151; 0.41497
 382.35;10098.552;  283.703;25937.612; 0.41727
 382.94;10192.641;  271.231;26182.039; 0.41691
 383.53;10308.698;  279.541;26558.760; 0.41835
 384.12;10449.910;  269.432;26865.627; 0.41705
 384.71;10520.973;  284.069;27028.687; 0.41707
 385.31;10742.160;  287.699;27353.893; 0.41313
 385.90;10886.366;  299.731;27598.110; 0.41138
 386.49;11025.924;  283.306;27919.987; 0.41038
 387.08;11022.881;  296.763;28085.602; 0.41343
 387.67;11134.874;  302.047;28384.267; 0.41369
 388.26;11245.357;  312.463;28670.094; 0.41393
 388.86;11421.033;  297.866;29041.131; 0.41231
 389.45;11597.193;  285.685;29324.329; 0.40946
 390.04;11848.692;  279.860;29566.863; 0.40339
 390.63;12038.477;  284.795;29878.048; 0.40102
 391.22;12111.166;  294.422;30097.179; 0.40176
 391.81;12103.641;  303.408;30368.117; 0.40617
 392.41;12262.338;  324.211;30517.642; 0.40298
 393.00;12400.781;  349.022;30747.606; 0.40180
 393.59;12544.178;  379.676;31111.212; 0.40249
 394.18;12606.588;  399.780;31505.223; 0.40623
 394.77;12786.972;  433.703;31930.599; 0.40649
 395.36;12952.362;  473.557;32244.356; 0.40586
 395.95;13100.299;  524.323;32561.017; 0.40611
 396.55;13209.323;  566.236;32856.406; 0.40722
 397.14;13308.978;  594.577;33298.717; 0.41031
 397.73;13575.971;  601.786;33627.642; 0.40577
 398.32;13807.899;  612.294;34204.404; 0.40581
 398.91;14119.442;  621.039;34614.988; 0.40112
 399.50;14269.923;  632.059;35200.379; 0.40393
 400.09;14595.048;  605.452;35675.306; 0.39913
 400.68;14898.117;  582.293;36366.134; 0.39787
 401.27;15226.565;  548.561;37014.694; 0.39522
 401.87;15462.379;  525.771;37604.957; 0.39488
 402.46;15693.168;  501.053;38119.893; 0.39379
 403.05;15960.970;  484.389;38675.942; 0.39229
 403.64;16191.832;  490.521;39240.769; 0.39234
 404.23;16559.507;  484.797;39841.080; 0.38887
 404.82;16846.464;  502.588;40438.695; 0.38801
 405.41;17145.938;  491.629;41140.816; 0.38753
 406.00;17305.149;  497.890;41752.976; 0.38998
 406.59;17485.048;  479.966;42383.807; 0.39168
 407.18;17829.344;  482.149;42943.385; 0.38876
 407.77;18152.667;  466.520;43500.038; 0.38617
 408.37;18416.287;  484.641;43973.019; 0.38475
 408.96;18562.798;  491.806;44465.898; 0.38621
 409.55;18791.189;  504.476;44970.283; 0.38589
 410.14;19045.397;  481.626;45459.452; 0.38433
 410.73;19336.420;  490.299;45905.805; 0.38198
 411.32;19488.363;  492.855;46441.730; 0.38362
 411.91;19732.887;  505.687;47060.216; 0.38405
 412.50;19835.326;  480.732;47624.639; 0.38664
 413.09;20047.791;  484.505;48110.411; 0.38640
 413.68;20278.320;  482.467;48573.257; 0.38549
 414.27;20483.315;  487.472;48936.919; 0.38435
 414.86;20654.045;  462.470;49236.309; 0.38302
 415.45;20739.503;  452.555;49687.411; 0.38506
 416.04;20972.514;  462.743;50083.734; 0.38370
 416.63;21201.057;  468.551;50542.275; 0.38296
 417.22;21368.472;  461.867;50754.683; 0.38122
 417.81;21515.277;  462.159;51068.477; 0.38089
 418.40;21625.149;  476.694;51393.675; 0.38158
 418.99;21771.005;  477.832;51737.830; 0.38154
 419.58;21758.257;  462.218;51969.382; 0.38357
 420.17;21785.943;  452.952;52248.392; 0.38524
 420.76;21877.064;  458.593;52499.836; 0.38556
 421.35;22039.330;  472.988;53005.769; 0.38665
 421.94;22142.732;  474.287;53203.501; 0.38622
 422.53;22265.543;  469.601;53402.299; 0.38535
 423.12;22338.751;  471.552;53493.823; 0.38467
 423.71;22444.808;  463.366;53670.857; 0.38392
 424.30;22467.155;  471.573;53819.883; 0.38479
 424.89;22392.291;  477.611;53888.037; 0.38689
 425.48;22347.971;  477.854;53974.356; 0.38847
 426.07;22230.341;  465.438;53940.695; 0.39040
 426.66;22246.503;  460.097;54040.507; 0.39082
 427.25;22139.780;  453.014;53995.096; 0.39250
 427.84;22052.078;  450.549;53912.043; 0.39356
 428.43;21958.814;  452.848;53711.442; 0.39383
 429.02;22018.261;  457.772;53797.552; 0.39339
 429.61;21969.504;  448.720;53826.107; 0.39450
 430.20;21837.185;  425.820;53758.443; 0.39635
 430.79;21585.987;  437.001;53531.580; 0.39976
 431.38;21484.628;  442.471;53315.543; 0.40014
 431.97;21329.870;  451.391;53001.434; 0.40087
 432.55;21265.779;  445.807;52690.011; 0.39956
 433.14;21120.181;  441.412;52704.411; 0.40267
 433.73;20972.182;  432.971;52655.054; 0.40527
 434.32;20815.414;  424.624;52606.263; 0.40808
 434.91;20643.889;  423.161;52233.737; 0.40862
 435.50;20543.692;  418.064;51971.869; 0.40851
 436.09;20320.476;  418.432;51687.970; 0.41096
 436.68;20144.824;  422.559;51624.303; 0.41433
 437.27;19968.326;  439.214;51661.122; 0.41877
 437.86;19771.116;  433.576;51508.561; 0.42181
 438.45;19679.211;  436.794;51330.326; 0.42240
 439.04;19515.188;  419.148;51043.637; 0.42342
 439.62;19373.873;  412.025;51000.963; 0.42617
 440.21;19103.635;  413.441;50885.373; 0.43144
 440.80;18946.132;  430.263;51024.538; 0.43656
 441.39;18841.745;  449.560;51081.161; 0.43979
 441.98;18663.890;  447.874;51020.625; 0.44346
 442.57;18554.513;  436.530;50797.219; 0.44398
 443.16;18402.558;  425.660;50702.578; 0.44665
 443.75;18307.241;  431.481;50788.909; 0.44980
 444.33;18135.716;  435.018;50969.383; 0.45560
 444.92;17978.347;  440.355;50892.685; 0.45890
 445.51;17829.677;  417.614;50850.986; 0.46187
 446.10;17770.260;  410.612;51056.876; 0.46501
 446.69;17664.274;  404.712;51275.545; 0.46944
 447.28;17573.796;  420.929;51457.726; 0.47355
 447.87;17393.125;  412.657;51329.383; 0.47691
 448.45;17265.501;  413.036;51412.748; 0.48090
 449.04;17173.407;  390.874;51445.980; 0.48318
 449.63;17139.392;  386.972;51646.289; 0.48570
 450.22;17040.908;  381.501;51835.467; 0.48976
 450.81;16900.993;  386.090;52100.884; 0.49574
 451.40;16785.246;  391.666;52058.120; 0.49853
 451.98;16724.545;  398.229;52052.065; 0.50021
 452.57;16619.953;  403.856;52211.469; 0.50445
 453.16;16459.840;  401.626;52273.023; 0.50923
 453.75;16292.531;  391.994;52359.708; 0.51432
 454.34;16218.851;  388.814;52215.013; 0.51507
 454.93;16099.882;  395.232;52494.699; 0.52081
 455.51;15944.411;  391.805;52615.216; 0.52606
 456.10;15878.984;  402.670;52907.445; 0.53053
 456.69;15764.257;  396.116;53041.712; 0.53474
 457.28;15843.415;  403.304;53288.203; 0.53468
 457.87;15649.886;  395.902;53216.666; 0.53942
 458.45;15587.272;  396.108;53304.691; 0.54194
 459.04;15413.312;  388.965;53401.373; 0.54758
 459.63;15357.430;  395.666;53676.141; 0.55159
 460.22;15192.760;  396.420;53639.128; 0.55611
 460.80;15006.773;  400.600;53692.823; 0.56213
 461.39;14967.506;  392.483;53895.895; 0.56477
 461.98;15020.416;  393.792;54364.115; 0.56701
 462.57;15063.938;  398.874;54782.941; 0.56919
 463.16;14956.620;  397.668;55197.607; 0.57565
 463.74;14906.891;  387.726;55673.212; 0.58067
 464.33;14890.782;  376.102;56213.777; 0.58512
 464.92;14981.396;  370.427;56547.398; 0.58488
 465.51;14989.714;  357.831;56911.710; 0.58716
 466.09;15079.585;  358.204;57352.888; 0.58789
 466.68;15083.156;  361.518;57898.436; 0.59199
 467.27;15084.360;  372.331;58292.638; 0.59516
 467.86;15015.456;  368.243;58560.733; 0.59911
 468.44;14995.316;  363.094;58919.922; 0.60227
 469.03;14985.548;  361.882;59322.152; 0.60550
 469.62;15058.451;  367.807;59788.037; 0.60689
 470.20;15031.766;  365.300;60231.337; 0.61086
 470.79;15071.958;  374.762;60677.863; 0.61311
 471.38;15045.930;  358.816;61146.166; 0.61688
 471.97;15142.165;  359.020;61564.389; 0.61702
 472.55;15202.793;  350.111;61933.679; 0.61766
 473.14;15196.055;  362.234;62406.602; 0.62145
 473.73;15196.676;  355.473;62971.535; 0.62522
 474.31;15145.609;  347.428;63489.444; 0.63011
 474.90;15165.755;  350.797;63899.238; 0.63240
 475.49;15182.426;  352.737;64160.914; 0.63374
 476.07;15210.490;  357.870;64473.326; 0.63516
 476.66;15208.349;  347.892;64752.829; 0.63689
 477.25;15219.208;  340.581;65000.332; 0.63807
 477.84;15177.407;  352.761;65155.193; 0.64061
 478.42;15157.499;  344.733;65155.945; 0.64101
 479.01;15132.556;  344.681;65156.001; 0.64175
 479.60;15123.405;  330.210;65156.511; 0.64169
 480.18;15104.499;  334.265;65158.257; 0.64235
 480.77;15037.067;  342.135;65159.480; 0.64452
 481.35;14971.959;  347.900;65159.373; 0.64658
 481.94;14925.439;  344.738;65159.188; 0.64789
 482.53;14830.848;  335.059;65159.923; 0.65050
 483.11;14779.974;  332.000;65160.709; 0.65196
 483.70;14752.660;  318.067;65161.719; 0.65246
 484.29;14690.946;  316.585;65163.324; 0.65430
 484.87;14662.842;  306.461;65164.542; 0.65492
 485.46;14591.570;  315.710;65164.272; 0.65730
 486.05;14605.205;  319.958;65162.920; 0.65698
 486.63;14575.204;  321.237;65162.258; 0.65791
 487.22;14528.194;  317.302;65162.909; 0.65926
 487.81;14465.666;  323.288;65164.368; 0.66133
 488.39;14322.107;  331.856;65164.474; 0.66597
 488.98;14178.693;  337.207;65163.733; 0.67057
 489.56;13971.763;  317.228;65164.794; 0.67662
 490.15;13847.688;  310.772;65166.371; 0.68043
 490.74;13765.448;  302.771;65167.454; 0.68288
 491.32;13712.786;  305.937;65168.774; 0.68467
 491.91;13549.750;  316.111;64974.057; 0.68894
 492.49;13284.004;  317.823;64712.314; 0.69604
 493.08;13060.482;  332.939;64167.133; 0.70031
 493.67;12935.233;  325.500;63724.219; 0.70137
 494.25;12815.867;  343.920;63105.848; 0.70176
 494.84;12671.445;  335.724;62474.087; 0.70220
 495.42;12530.117;  338.386;61959.759; 0.70367
 496.01;12367.344;  319.873;61399.648; 0.70500
 496.59;12185.148;  310.443;60754.114; 0.70673
 497.18;11970.849;  311.106;60078.479; 0.70978
 497.77;11848.016;  311.733;59331.632; 0.70893
 498.35;11706.855;  326.966;58841.796; 0.71113
 498.94;11579.938;  324.499;58030.218; 0.70986
 499.52;11440.578;  324.914;57567.186; 0.71178
 500.11;11295.338;  311.275;56906.600; 0.71202
 500.69;11185.982;  304.601;56449.246; 0.71262
 501.28;11068.445;  315.149;55764.708; 0.71236
 501.86;10984.537;  317.653;55155.772; 0.71104
 502.45;10967.148;  338.264;54632.693; 0.70827
 503.03;10897.441;  328.939;54106.656; 0.70659
 503.62;10848.528;  339.385;53665.090; 0.70537
 504.20;10729.077;  326.215;53123.968; 0.70546
 504.79;10714.932;  326.766;52666.148; 0.70229
 505.37;10736.646;  326.582;52358.543; 0.69882
 505.96;10743.530;  332.269;51859.105; 0.69453
 506.55;10795.269;  327.706;51491.158; 0.68911
 507.13;10826.529;  315.837;51254.709; 0.68542
 507.72;10923.222;  312.954;51138.387; 0.68035
 508.30;11030.123;  319.265;50944.634; 0.67454
 508.89;11103.305;  316.460;50626.145; 0.66876
 509.47;11204.888;  308.593;50383.056; 0.66234
 510.05;11293.372;  311.037;50305.214; 0.65822
 510.64;11451.026;  312.992;50205.541; 0.65123
 511.22;11603.967;  326.961;50242.492; 0.64604
 511.81;11775.326;  323.186;50282.527; 0.63973
 512.39;11964.077;  329.747;50266.280; 0.63268
 512.98;12046.915;  310.647;50213.110; 0.62859
 513.56;12221.439;  306.947;50200.284; 0.62197
 514.15;12453.007;  297.484;50225.841; 0.61357
 514.73;12718.504;  293.306;50310.339; 0.60481
 515.32;12903.876;  298.909;50412.714; 0.59942
 515.90;13074.636;  306.909;50529.464; 0.59479
 516.49;13271.114;  321.223;50576.262; 0.58891
 517.07;13475.997;  323.415;50501.804; 0.58151
 517.66;13705.152;  325.663;50468.951; 0.57377
 518.24;13987.643;  330.491;50581.443; 0.56578
 518.82;14121.981;  322.791;50433.118; 0.56007
 519.41;14348.781;  321.449;50483.238; 0.55340
 519.99;14627.504;  304.901;50520.942; 0.54482
 520.58;14975.081;  313.039;50964.514; 0.53840
 521.16;15282.085;  316.114;51139.212; 0.53096
 521.75;15526.361;  315.579;51354.849; 0.52575
 522.33;15889.359;  314.722;51552.832; 0.51718
 522.91;16171.997;  303.280;51724.449; 0.51060
 523.50;16549.975;  304.661;51708.091; 0.50026
 524.08;16808.412;  292.957;51816.521; 0.49412
 524.67;17161.391;  296.699;52029.160; 0.48678
 525.25;17355.538;  294.898;52244.306; 0.48359
 525.83;17710.245;  300.195;52281.679; 0.47505
 526.42;18001.890;  299.604;52255.985; 0.46761
 527.00;18340.222;  297.414;52315.968; 0.45985
 527.59;18528.987;  293.742;52194.390; 0.45426
 528.17;18736.395;  296.702;52169.461; 0.44919
 528.75;19050.051;  314.407;52237.781; 0.44269
 529.34;19373.141;  317.963;52410.206; 0.43676
 529.92;19686.298;  322.096;52599.701; 0.43132
 530.50;19923.690;  308.099;52577.086; 0.42564
 531.09;20237.526;  310.277;52580.588; 0.41881
 531.67;20399.004;  319.699;52493.409; 0.41470
 532.25;20564.887;  331.224;52474.618; 0.41112
 532.84;20695.694;  319.265;52286.406; 0.40660
 533.42;20948.413;  303.579;52069.121; 0.39923
 534.00;21219.236;  296.379;51800.283; 0.39122
 534.59;21371.975;  306.923;51692.027; 0.38727
 535.17;21504.582;  307.396;51484.292; 0.38280
 535.75;21508.321;  311.833;51399.345; 0.38205
 536.34;21763.620;  327.170;51106.314; 0.37453
 536.92;21953.984;  323.362;50970.357; 0.36948
 537.50;22136.998;  320.767;50555.361; 0.36222
 538.09;22151.248;  304.234;50224.272; 0.35888
 538.67;22209.333;  307.957;49849.711; 0.35450
 539.25;22411.522;  292.004;49517.578; 0.34742
 539.84;22599.721;  298.382;49195.084; 0.34095
 540.42;22733.073;  287.620;48747.408; 0.33425
 541.00;22737.275;  304.712;48328.615; 0.33058
 541.59;22821.132;  293.453;47996.146; 0.32583
 542.17;22876.638;  303.713;47681.974; 0.32199
 542.75;22946.426;  301.687;47449.085; 0.31849
 543.33;22967.435;  321.928;47035.436; 0.31446
 543.92;23038.460;  322.791;46647.473; 0.30949
 544.50;23147.325;  319.637;46212.001; 0.30328
 545.08;23248.068;  303.653;45900.067; 0.29825
 545.67;23397.861;  304.594;45544.519; 0.29204
 546.25;23502.273;  306.855;45243.598; 0.28720
 546.83;23576.235;  305.919;44881.223; 0.28229
 547.41;23591.642;  307.185;44485.963; 0.27815
 548.00;23572.760;  304.048;44073.416; 0.27440
 548.58;23565.695;  293.554;43651.340; 0.27023
 549.16;23566.661;  273.252;43462.973; 0.26815
 549.74;23715.362;  276.221;43125.006; 0.26200
 550.33;23874.722;  287.338;42789.017; 0.25573
 550.91;23968.845;  287.502;42328.145; 0.24926
 551.49;23960.417;  275.114;42084.067; 0.24679
 552.07;23975.361;  281.527;41894.675; 0.24460
 552.66;24107.612;  296.715;41696.915; 0.24023
 553.24;24177.501;  301.874;41407.799; 0.23595
 553.82;24210.769;  287.046;41262.389; 0.23369
 554.40;24253.364;  287.502;41018.645; 0.23033
 554.98;24416.569;  286.839;40927.197; 0.22641
 555.57;24624.804;  295.511;40724.442; 0.22056
 556.15;24842.557;  295.794;40729.857; 0.21675
 556.73;24970.231;  289.872;40584.856; 0.21290
 557.31;25136.150;  280.087;40487.094; 0.20887
 557.89;25099.960;  267.680;40402.230; 0.20850
 558.48;25322.213;  270.725;40389.487; 0.20451
 559.06;25467.367;  269.279;40492.969; 0.20311
 559.64;25721.422;  288.172;40421.363; 0.19810
 560.22;25765.883;  308.276;40298.501; 0.19614
 560.80;25961.156;  311.749;40155.433; 0.19128
 561.39;26202.878;  300.174;40123.139; 0.18679
 561.97;26478.880;  304.256;40118.465; 0.18216
 562.55;26645.673;  305.864;40159.584; 0.17986
 563.13;26789.905;  307.652;40244.814; 0.17842
 563.71;27020.415;  295.320;40343.674; 0.17567
 564.29;27198.901;  296.315;40286.513; 0.17216
 564.88;27365.100;  280.495;40218.374; 0.16866
 565.46;27456.179;  277.260;40267.767; 0.16772
 566.04;27714.987;  269.464;40338.574; 0.16434
 566.62;27967.193;  292.162;40520.457; 0.16244
 567.20;28306.747;  292.265;40647.678; 0.15852
 567.78;28417.819;  300.170;40851.754; 0.15903
 568.36;28643.153;  300.837;41002.754; 0.15718
 568.94;28748.595;  296.460;41004.189; 0.15556
 569.53;29070.935;  295.816;41099.192; 0.15168
 570.11;29278.569;  283.902;41113.488; 0.14866
 570.69;29598.334;  278.869;41248.245; 0.14530
 571.27;29757.018;  279.854;41227.262; 0.14274
 571.85;29894.979;  279.584;41295.220; 0.14143
 572.43;30040.656;  299.078;41479.213; 0.14132
 573.01;30192.314;  288.199;41566.526; 0.13999
 573.59;30422.452;  284.931;41522.011; 0.13618
 574.17;30626.400;  270.419;41423.650; 0.13216
 574.76;30825.164;  278.826;41529.098; 0.13047
 575.34;31082.729;  274.920;41725.997; 0.12888
 575.92;31211.255;  271.771;41808.186; 0.12792
 576.50;31413.904;  265.398;41828.507; 0.12527
 577.08;31464.780;  261.206;41866.048; 0.12494
 577.66;31645.769;  250.776;41875.013; 0.12249
 578.24;31708.592;  252.747;41879.155; 0.12167
 578.82;31908.681;  257.942;41897.583; 0.11912
 579.40;32030.308;  266.978;41903.210; 0.11755
 579.98;32229.726;  273.567;41841.961; 0.11421
 580.56;32399.415;  281.852;41853.319; 0.11205
 581.14;32524.595;  291.659;41917.834; 0.11107
 581.72;32689.342;  280.280;42082.244; 0.11053
 582.30;32841.243;  273.151;42074.467; 0.10840
 582.88;33082.729;  274.650;42152.288; 0.10600
 583.46;33147.918;  282.363;42189.821; 0.10555
 584.04;33268.542;  282.956;42171.457; 0.10377
 584.62;33422.233;  265.125;42197.830; 0.10198
 585.21;33536.506;  267.265;42241.428; 0.10094
 585.79;33638.429;  273.754;42392.009; 0.10118
 586.37;33686.395;  277.118;42415.309; 0.10081
 586.95;33899.566;  275.522;42455.787; 0.09846
 587.53;34147.949;  269.979;42469.819; 0.09539
 588.11;34273.381;  278.442;42585.262; 0.09500
 588.69;34482.638;  282.733;42557.865; 0.09206
 589.27;34516.914;  283.424;42506.477; 0.09110
 589.85;34663.379;  276.026;42443.602; 0.08858
 590.43;34690.052;  271.715;42599.939; 0.08984
 591.01;34812.627;  278.076;42722.853; 0.08957
 591.59;34963.716;  288.299;42936.945; 0.08988
 592.16;35181.095;  287.924;42891.657; 0.08671
 592.74;35274.826;  291.617;42886.045; 0.08549
 593.32;35234.080;  293.193;42739.948; 0.08451
 593.90;35149.771;  297.895;42708.966; 0.08525
 594.48;35217.504;  288.777;42603.037; 0.08330
 595.06;35332.930;  285.245;42684.475; 0.08270
 595.64;35448.691;  272.769;42709.242; 0.08149
 596.22;35623.590;  276.890;42757.472; 0.07984
 596.80;35626.411;  268.138;42505.619; 0.07721
 597.38;35652.690;  264.245;42457.558; 0.07638
 597.96;35607.373;  262.869;42299.911; 0.07531
 598.54;35673.198;  268.057;42320.734; 0.07473
 599.12;35702.544;  272.769;42174.074; 0.07286
 599.70;35678.090;  272.156;42133.628; 0.07274
 600.28;35652.670;  269.178;41999.881; 0.07166
 600.86;35664.368;  273.568;41898.236; 0.07046
 601.44;35627.785;  279.130;41816.989; 0.07007
 602.02;35579.446;  273.135;41601.984; 0.06840
 602.59;35630.635;  269.019;41487.164; 0.06656
 603.17;35589.118;  254.435;41427.991; 0.06642
 603.75;35582.814;  264.600;41407.036; 0.06629
 604.33;35520.479;  268.544;41269.041; 0.06561
 604.91;35417.750;  272.574;41056.648; 0.06462
 605.49;35371.842;  271.546;40985.067; 0.06443
 606.07;35250.672;  254.900;40828.877; 0.06423
 606.65;35266.497;  260.422;40696.701; 0.06263
 607.23;35194.259;  264.441;40448.820; 0.06086
 607.80;35047.478;  277.156;40221.379; 0.06025
 608.38;34943.919;  277.256;40025.464; 0.05941
 608.96;34769.796;  285.786;39921.000; 0.06046
 609.54;34649.170;  288.246;39743.725; 0.06004
 610.12;34507.153;  283.928;39528.375; 0.05946
 610.70;34325.737;  273.259;39095.265; 0.05693
 611.28;34062.202;  259.195;38813.390; 0.05712
 611.85;33833.038;  265.841;38433.913; 0.05579
 612.43;33637.742;  260.695;38304.961; 0.05684
 613.01;33591.946;  263.202;38019.161; 0.05417
 613.59;33354.569;  249.299;37795.112; 0.05466
 614.17;33185.533;  240.914;37668.085; 0.05540
 614.75;32876.984;  222.778;37521.205; 0.05775
 615.32;32672.229;  209.277;37291.775; 0.05778
 615.90;32605.352;  219.080;36866.572; 0.05368
 616.48;32422.429;  232.952;36658.988; 0.05370
 617.06;32178.267;  255.157;36308.488; 0.05284
 617.64;31893.921;  246.140;36072.812; 0.05386
 618.22;31741.959;  241.049;35666.522; 0.05099
 618.79;31647.725;  228.178;35515.632; 0.05042
 619.37;31375.441;  227.104;35180.352; 0.05005
 619.95;31080.380;  231.387;34894.600; 0.05063
 620.53;30764.946;  218.869;34491.494; 0.04999
 621.11;30534.070;  206.529;34156.975; 0.04901
 621.68;30455.793;  201.116;33920.700; 0.04709
 622.26;30299.548;  202.843;33803.106; 0.04782
 622.84;30219.820;  212.594;33643.042; 0.04692
 623.42;30033.514;  214.208;33340.072; 0.04567
 623.99;29841.266;  232.130;33128.823; 0.04573
 624.57;29562.982;  239.695;32874.211; 0.04646
 625.15;29323.382;  249.244;32723.283; 0.04803
 625.73;29215.212;  235.066;32483.448; 0.04641
 626.30;29177.558;  228.444;32290.122; 0.04435
 626.88;29029.707;  228.031;32032.596; 0.04307
 627.46;28773.551;  230.061;31766.787; 0.04331
 628.04;28496.641;  242.419;31549.234; 0.04456
 628.61;28248.178;  241.899;31249.103; 0.04421
 629.19;28000.501;  244.829;31015.066; 0.04478
 629.77;27719.197;  231.831;30736.758; 0.04524
 630.35;27564.288;  234.217;30562.869; 0.04521
 630.92;27417.664;  232.092;30375.921; 0.04486
 631.50;27372.542;  220.757;30199.145; 0.04301
 632.08;27198.738;  206.521;29949.680; 0.04215
 632.66;27011.859;  196.801;29744.460; 0.04214
 633.23;26703.490;  216.776;29426.430; 0.04250
 633.81;26424.418;  225.566;29138.020; 0.04280
 634.39;26277.835;  220.298;28844.754; 0.04080
 634.96;26080.208;  221.956;28624.791; 0.04076
 635.54;26048.293;  216.680;28606.896; 0.04102
 636.12;25843.016;  214.735;28334.976; 0.04030
 636.69;25729.640;  204.526;28222.591; 0.04047
 637.27;25432.231;  199.403;27913.834; 0.04074
 637.85;25317.798;  217.219;27696.062; 0.03931
 638.42;25116.724;  206.286;27392.989; 0.03798
 639.00;24996.511;  223.367;27259.457; 0.03796
 639.58;24799.655;  209.789;26981.612; 0.03692
 640.15;24588.520;  222.891;26790.445; 0.03757
 640.73;24373.302;  204.119;26492.226; 0.03650
 641.31;24230.750;  216.013;26471.006; 0.03873
 641.88;24028.199;  210.908;26285.787; 0.03933
 642.46;23941.647;  226.803;26132.901; 0.03838
 643.04;23869.762;  214.697;25934.349; 0.03634
 643.61;23831.544;  223.925;25817.463; 0.03508
 644.19;23670.326;  209.153;25659.577; 0.03535
 644.77;23521.774;  224.048;25468.358; 0.03485
 645.34;23432.556;  211.943;25293.805; 0.03349
 645.92;23222.671;  214.504;25070.586; 0.03355
 646.49;23003.120;  218.399;24938.033; 0.03540
 647.07;22821.902;  220.293;24745.814; 0.03548
 647.65;22755.017;  224.188;24564.928; 0.03356
 648.22;22608.465;  218.082;24391.042; 0.03327
 648.80;22506.914;  227.310;24368.156; 0.03485
 649.37;22437.362;  227.872;24339.937; 0.03570
 649.95;22359.477;  227.433;24242.051; 0.03545
 650.53;22287.259;  209.328;24121.165; 0.03465
 651.10;22121.374;  214.222;24054.279; 0.03672
 651.68;22144.489;  211.450;24020.060; 0.03564
 652.25;22060.605;  221.012;23899.174; 0.03510
 652.83;22033.053;  211.573;23700.955; 0.03199
 653.41;21919.168;  208.468;23524.069; 0.03097
 653.98;21923.617;  212.362;23340.850; 0.02746
 654.56;21846.399;  211.590;23307.630; 0.02838
 655.13;21701.847;  208.818;23285.744; 0.03088
 655.71;21491.295;  207.379;23284.525; 0.03513
 656.28;21383.744;  194.941;23185.639; 0.03545
 656.86;21313.192;  188.169;22962.753; 0.03265
 657.43;21343.308;  190.397;22872.868; 0.03032
 658.01;21336.423;  212.958;22793.315; 0.02897
 658.58;21337.205;  207.519;22876.096; 0.03053
 659.16;21298.320;  211.747;22798.876; 0.02986
 659.74;21323.768;  196.309;22777.324; 0.02890
 660.31;21246.217;  204.203;22714.438; 0.02929
 660.89;21133.998;  198.098;22687.885; 0.03109
 661.46;21030.447;  206.659;22545.999; 0.03051
 662.04;20969.895;  208.554;22516.780; 0.03121
 662.61;21016.011;  207.448;22500.894; 0.02994
 663.19;20966.126;  206.676;22626.342; 0.03341
 663.76;21064.574;  209.571;22600.456; 0.03086
 664.34;20997.023;  211.132;22526.237; 0.03083
 664.91;21137.471;  214.027;22413.684; 0.02571
 665.49;21235.253;  216.922;22441.798; 0.02424
 666.06;21359.035;  213.150;22513.246; 0.02308
 666.64;21320.150;  212.044;22555.693; 0.02470
 667.21;21197.932;  216.606;22500.140; 0.02615
 667.79;21092.713;  204.167;22400.588; 0.02637
 668.36;21086.495;  201.395;22402.702; 0.02654
 668.93;21109.610;  202.290;22421.149; 0.02642
 669.51;21151.726;  198.184;22426.263; 0.02564
 670.08;21044.507;  192.412;22387.044; 0.02710
 670.66;20951.289;  189.307;22273.825; 0.02682
 671.23;20977.404;  213.201;22361.606; 0.02803
 671.81;21109.853;  219.763;22403.720; 0.02610
 672.38;21194.968;  224.324;22501.167; 0.02624
 672.96;21202.083;  213.552;22510.281; 0.02626
 673.53;21144.198;  213.113;22482.395; 0.02691
 674.10;21172.647;  213.008;22524.843; 0.02715
 674.68;21149.762;  228.236;22505.290; 0.02726
 675.25;21126.210;  221.131;22417.404; 0.02603
 675.83;21069.325;  215.692;22370.185; 0.02628
 676.40;21047.774;  203.253;22300.299; 0.02534
 676.98;21078.222;  209.148;22323.413; 0.02517
 677.55;21045.338;  210.043;22281.527; 0.02503
 678.12;21005.453;  223.937;22260.975; 0.02548
 678.70;20874.901;  221.832;22236.089; 0.02772
 679.27;20865.683;  229.060;22163.870; 0.02650
 679.85;20789.131;  216.621;22124.984; 0.02732
 680.42;20830.247;  216.516;22133.431; 0.02662
 680.99;20730.362;  192.744;22099.212; 0.02802
 681.57;20773.810;  198.305;22028.659; 0.02571
 682.14;20722.592;  205.866;21848.773; 0.02321
 682.71;20745.040;  210.761;21795.554; 0.02167
 683.29;20715.489;  200.656;21706.668; 0.02049
 683.86;20586.271;  185.884;21546.116; 0.01997
 684.43;20444.719;  198.112;21362.230; 0.01925
 685.01;20323.834;  197.006;21197.011; 0.01844
 685.58;20376.950;  206.234;21272.458; 0.01887
 686.16;20428.065;  206.462;21269.239; 0.01770
 686.73;20389.513;  215.023;21397.686; 0.02118
 687.30;20306.962;  207.585;21388.467; 0.02276
 687.88;20166.077;  217.479;21321.914; 0.02446
 688.45;20030.859;  210.707;21118.362; 0.02320
 689.02;19963.640;  213.602;21022.142; 0.02267
 689.60;19903.756;  190.497;20889.257; 0.02119
 690.17;19949.871;  199.391;20926.704; 0.02097
 690.74;19878.319;  189.619;20805.485; 0.01998
 691.31;19865.434;  204.181;20824.932; 0.02069
 691.89;19779.883;  191.742;20754.713; 0.02109
 692.46;19693.998;  212.637;20700.494; 0.02188
 693.03;19665.113;  229.198;20611.941; 0.02066
 693.61;19602.561;  234.759;20426.722; 0.01810
 694.18;19632.010;  237.320;20424.503; 0.01739
 694.75;19536.458;  206.882;20414.950; 0.01930
 695.32;19380.907;  208.110;20458.064; 0.02374
 695.90;19214.022;  203.004;20312.512; 0.02440
 696.47;19153.471;  203.899;20210.626; 0.02358
 697.04;19200.919;  214.460;20060.073; 0.01922
 697.62;19157.034;  213.355;20039.187; 0.01977
 698.19;19095.483;  229.250;19951.301; 0.01927
 698.76;18991.598;  211.144;19960.082; 0.02184
 699.33;18938.046;  210.706;19883.196; 0.02138
 699.91;18835.828;  196.600;19795.977; 0.02181
 700.48;18801.943;  206.162;19674.091; 0.01991
 701.05;18756.058;  208.056;19645.538; 0.02034
 701.62;18676.840;  232.951;19536.652; 0.01979
 702.20;18575.289;  235.179;19463.767; 0.02055
 702.77;18478.070;  232.073;19314.881; 0.01947
 703.34;18421.186;  217.301;19303.995; 0.02057
 703.91;18346.301;  214.196;19161.775; 0.01911
 704.48;18323.416;  220.091;19054.223; 0.01719
 705.06;18275.198;  212.652;18964.004; 0.01625
 705.63;18262.646;  221.213;18940.118; 0.01601
 706.20;18183.761;  214.441;18934.565; 0.01778
 706.77;18135.210;  221.336;18864.679; 0.01733
 707.34;18086.658;  215.564;18821.793; 0.01751
 707.92;17977.773;  205.792;18710.907; 0.01756
 708.49;17909.555;  193.353;18575.022; 0.01601
 709.06;17794.670;  193.248;18466.136; 0.01626
 709.63;17811.119;  194.476;18431.916; 0.01504
 710.20;17672.901;  191.037;18446.697; 0.01881
 710.77;17660.016;  187.932;18338.145; 0.01654
 711.35;17651.464;  185.826;18305.592; 0.01597
 711.92;17803.913;  205.721;18271.706; 0.01139
 712.49;17824.028;  207.616;18372.487; 0.01331
 713.06;17835.476;  215.844;18405.934; 0.01384
 713.63;17791.925;  209.405;18498.382; 0.01711
 714.20;17829.040;  212.300;18556.829; 0.01758
 714.78;17839.488;  209.528;18487.277; 0.01567
 715.35;17832.270;  205.756;18407.724; 0.01395
 715.92;17817.385;  207.317;18351.838; 0.01298
 716.49;17823.500;  222.545;18343.285; 0.01264
 717.06;17812.616;  226.106;18273.400; 0.01123
 717.63;17810.064;  217.334;18198.847; 0.00949
 718.20;17687.179;  210.895;18175.294; 0.01196
 718.77;17661.294;  224.790;18170.075; 0.01249
 719.35;17581.743;  226.351;18153.189; 0.01407
 719.92;17501.858;  211.913;18038.303; 0.01327
 720.49;17393.973;  197.474;17879.084; 0.01208
 721.06;17286.422;  177.369;17774.532; 0.01222
 721.63;17330.203;  190.930;17799.979; 0.01174
 722.20;17330.985;  195.825;17861.426; 0.01324
 722.77;17401.767;  203.386;17825.540; 0.01057
 723.34;17352.549;  196.947;17821.321; 0.01171
 723.91;17312.331;  205.509;17813.102; 0.01253
 724.48;17241.112;  222.070;17777.883; 0.01349
 725.05;17266.228;  212.964;17617.997; 0.00887
 725.62;17230.343;  195.192;17490.778; 0.00659
 726.20;17136.458;  186.754;17461.892; 0.00826
 726.77;17039.573;  192.982;17446.339; 0.01036
 727.34;16988.022;  199.210;17412.787; 0.01085
 727.91;16991.803;  209.104;17361.567; 0.00946
 728.48;16959.252;  214.999;17354.015; 0.01012
 729.05;16960.367;  215.560;17353.795; 0.01009
 729.62;16946.149;  192.788;17320.910; 0.00961
 730.19;16894.597;  185.683;17297.024; 0.01034
 730.76;16899.712;  188.578;17324.138; 0.01089
 731.33;16860.828;  211.472;17306.252; 0.01147
 731.90;16815.276;  215.034;17274.033; 0.01184
 732.47;16716.391;  206.261;17242.147; 0.01361
 733.04;16645.173;  191.156;17245.594; 0.01557
 733.61;16588.621;  168.051;17256.042; 0.01730
 734.18;16591.070;  173.945;17191.156; 0.01559
 734.75;16525.185;  184.507;17077.270; 0.01443
 735.32;16559.633;  211.401;16955.384; 0.01039
 735.89;16450.749;  203.963;16851.831; 0.01059
 736.46;16417.197;  212.191;16734.945; 0.00843
 737.03;16325.979;  203.085;16674.393; 0.00929
 737.60;16334.427;  203.647;16580.840; 0.00658
 738.17;16243.543;  173.208;16558.621; 0.00843
 738.74;16127.658;  184.103;16523.735; 0.01066
 739.31;16041.106;  185.331;16430.849; 0.01055
 739.88;15982.888;  195.225;16300.630; 0.00865
 740.45;15914.670;  176.120;16234.411; 0.00873
 741.02;15895.118;  174.348;16293.858; 0.01088
 741.59;15879.233;  171.909;16337.305; 0.01248
 742.15;15996.682;  177.804;16325.753; 0.00894
 742.72;16049.130;  185.365;16376.867; 0.00888
 743.29;16136.579;  187.593;16351.648; 0.00582
 743.86;16070.027;  195.154;16298.095; 0.00619
 744.43;15956.809;  197.049;16220.543; 0.00721
 745.00;15928.258;  201.277;16240.323; 0.00853
 745.57;15892.706;  209.172;16261.771; 0.01010
 746.14;15799.155;  201.733;16198.552; 0.01098
 746.71;15738.603;  208.294;16179.666; 0.01216
 747.28;15748.051;  196.522;16170.446; 0.01164
 747.85;15847.833;  172.417;16124.227; 0.00759
 748.42;15854.615;  173.645;16103.675; 0.00684
 748.98;15843.064;  177.206;16075.455; 0.00640
 749.55;15798.179;  197.767;16011.569; 0.00590
 750.12;15817.627;  197.662;16015.683; 0.00547
 750.69;15790.409;  204.890;15955.131; 0.00457
 751.26;15739.191;  216.118;15910.245; 0.00476
 751.83;15629.639;  206.013;15821.026; 0.00536
 752.40;15571.088;  204.907;15769.807; 0.00558
 752.97;15488.203;  192.802;15780.587; 0.00822
 753.53;15483.985;  195.697;15773.035; 0.00813
 754.10;15519.767;  187.925;15706.815; 0.00527
 754.67;15514.882;  185.486;15666.263; 0.00427
 755.24;15432.997;  192.714;15616.044; 0.00519
 755.81;15317.779;  200.608;15583.491; 0.00757
 756.38;15311.227;  223.503;15510.272; 0.00569
 756.94;15261.676;  215.064;15482.386; 0.00632
 757.51;15191.124;  204.292;15502.833; 0.00894
 758.08;15124.239;  196.520;15545.281; 0.01208
 758.65;15003.354;  213.748;15443.728; 0.01274
 759.22;14844.803;  220.643;15351.176; 0.01478
 759.79;14697.251;  205.538;15180.623; 0.01425
 760.35;14604.700;  191.432;15130.404; 0.01556
 760.92;14566.815;  201.994;14987.518; 0.01254
 761.49;14489.930;  208.555;14849.965; 0.01081
 762.06;14407.378;  211.783;14641.079; 0.00709
 762.63;14328.160;  201.011;14500.527; 0.00527
 763.19;14292.609;  203.239;14469.641; 0.00542
 763.76;14213.724;  215.133;14423.422; 0.00646
 764.33;14145.506;  219.695;14294.202; 0.00461
 764.90;13991.621;  218.589;14107.650; 0.00364
 765.46;13897.403;  197.817;13914.097; 0.00053
 766.03;13670.184;  196.045;13749.878; 0.00256
 766.60;13494.633;  197.940;13624.992; 0.00424
 767.17;13296.081;  205.501;13465.773; 0.00559
 767.73;13158.530;  207.063;13413.220; 0.00846
 768.30;13020.312;  206.624;13205.001; 0.00621
 768.87;12884.760;  215.185;13045.782; 0.00548
 769.44;12737.875;  213.413;12836.229; 0.00340
 770.00;12577.324;  215.975;12686.677; 0.00383
 770.57;12411.772;  216.536;12525.791; 0.00404
 771.14;12231.887;  213.430;12350.238; 0.00426
 771.71;11998.669;  198.325;12122.686; 0.00454
 772.27;11686.784;  206.220;11935.800; 0.00932
 772.84;11507.233;  209.448;11715.914; 0.00795
 773.41;11350.681;  213.676;11595.695; 0.00945
 773.97;11319.463;  205.904;11440.809; 0.00472
 774.54;11150.912;  213.798;11314.923; 0.00646
 775.11;11021.693;  232.360;11227.370; 0.00820
 775.67;10877.142;  228.588;11074.818; 0.00799
 776.24;10704.257;  222.482;10902.265; 0.00813
 776.81;10543.372;  220.377;10665.712; 0.00512
 777.38;10388.487;  208.272;10484.160; 0.00406
 777.94;10353.936;  214.166;10350.941;-0.00013
 778.51;10273.718;  199.728;10214.721;-0.00255
 779.08;10153.499;  210.622;10137.835;-0.00068
 779.64;10038.615;  201.517;10058.283; 0.00087
 780.21; 9901.063;  202.745; 9970.064; 0.00308
 780.78; 9815.178;  211.639; 9870.178; 0.00248
 781.34; 9654.960;  212.534; 9787.625; 0.00606
 781.91; 9559.742;  225.762; 9703.406; 0.00663
 782.47; 9479.524;  227.990; 9633.520; 0.00717
 783.04; 9474.305;  238.551; 9482.634; 0.00039
 783.61; 9421.421;  245.779; 9385.415;-0.00171
 784.17; 9318.202;  246.674; 9320.196; 0.00010
 784.74; 9197.317;  236.569; 9240.310; 0.00208
 785.31; 9126.433;  244.797; 9256.090; 0.00629
 785.87; 9053.881;  248.691; 9137.538; 0.00411
 786.44; 9025.330;  252.252; 9126.319; 0.00497
 787.00; 8958.445;  239.480; 9065.766; 0.00531
 787.57; 8951.227;  222.375; 9005.880; 0.00271
 788.14; 8886.008;  242.936; 8941.661; 0.00279
 788.70; 8867.123;  252.831; 8828.442;-0.00195
 789.27; 8844.905;  261.392; 8880.222; 0.00178
 789.83; 8848.687;  247.620; 8836.003;-0.00064
 790.40; 8819.136;  230.182; 8838.117; 0.00096
 790.96; 8796.584;  235.076; 8799.898; 0.00017
 791.53; 8761.366;  229.304; 8766.679; 0.00027
 792.10; 8761.814;  224.866; 8777.126; 0.00078
 792.66; 8683.929;  219.094; 8720.574; 0.00188
 793.23; 8629.045;  214.988; 8733.688; 0.00537
 793.79; 8569.826;  216.216; 8675.468; 0.00546
 794.36; 8594.942;  210.777; 8660.249; 0.00337
 794.92; 8580.057;  219.339; 8606.363; 0.00136
 795.49; 8601.839;  232.233; 8532.811;-0.00360
 796.05; 8531.620;  243.461; 8505.258;-0.00138
 796.62; 8493.402;  248.023; 8527.372; 0.00179
 797.19; 8459.851;  237.917; 8507.820; 0.00253
 797.75; 8469.299;  226.145; 8453.600;-0.00083
 798.32; 8434.748;  218.373; 8393.714;-0.00217
 798.88; 8389.196;  222.601; 8383.829;-0.00029
 799.45; 8388.644;  224.829; 8436.276; 0.00253
 800.01; 8510.093;  220.391; 8517.723; 0.00040
 800.58; 8718.875;  215.952; 8677.504;-0.00212
 801.14; 8963.657;  222.513; 8916.952;-0.00233
 801.71; 9186.105;  218.074; 9117.399;-0.00334
 802.27; 9375.220;  206.969; 9310.180;-0.00309
 802.84; 9636.002;  188.864; 9480.294;-0.00722
 803.40; 9889.117;  179.758; 9723.075;-0.00749
 803.96;10096.899;  198.986;10006.189;-0.00400
 804.53;10382.347;  210.548;10273.303;-0.00468
 805.09;10688.463;  208.442;10576.417;-0.00467
 805.66;11140.244;  200.670;10926.198;-0.00858
 806.22;11484.693;  172.898;11264.978;-0.00852
 806.79;11837.808;  185.793;11622.426;-0.00810
 807.35;12181.256;  182.354;11886.873;-0.01079
 807.92;12447.038;  214.582;12161.654;-0.01025
 808.48;12767.153;  221.810;12436.768;-0.01159
 809.05;12905.935;  217.705;12708.882;-0.00680
 809.61;13254.050;  213.933;13054.330;-0.00670
 810.17;13497.832;  218.827;13355.110;-0.00469
 810.74;13915.614;  231.055;13671.891;-0.00780
 811.30;14200.396;  226.617;13899.672;-0.00945
 811.87;14615.844;  214.511;14212.453;-0.01234
 812.43;14894.626;  214.406;14571.233;-0.00967
 812.99;15187.075;  216.967;14881.014;-0.00897
 813.56;15416.523;  221.862;15191.462;-0.00648
 814.12;15758.972;  221.090;15523.909;-0.00662
 814.69;16098.087;  216.318;15866.356;-0.00638
 815.25;16415.535;  210.213;16143.804;-0.00734
 815.81;16789.650;  200.774;16302.251;-0.01295
 816.38;17127.765;  196.335;16642.699;-0.01262
 816.94;17445.881;  193.897;16882.479;-0.01442
 817.51;17679.662;  192.791;17283.594;-0.00995
 818.07;17895.111;  201.019;17504.374;-0.00970
 818.63;18180.226;  202.247;17804.155;-0.00918
 819.20;18466.008;  201.808;18033.936;-0.01040
 819.76;18776.456;  209.370;18216.050;-0.01331
 820.32;18955.905;  216.598;18394.831;-0.01320
 820.89;19127.020;  218.159;18583.278;-0.01267
 821.45;19191.802;  193.387;18775.726;-0.00962
 822.01;19355.583;  176.615;18965.173;-0.00893
 822.58;19336.032;  180.843;19065.620;-0.00617
 823.14;19430.480;  194.404;19233.068;-0.00448
 823.70;19443.262;  202.299;19352.182;-0.00206
 824.27;19562.377;  193.194;19462.963;-0.00223
 824.83;19682.826;  215.421;19467.743;-0.00482
 825.39;19623.274;  215.649;19374.524;-0.00560
 825.95;19493.389;  221.211;19316.972;-0.00399
 826.52;19239.838;  191.105;19274.752; 0.00080
 827.08;19133.953;  189.000;19152.200; 0.00042
 827.64;18968.735;  175.895;18949.314;-0.00045
 828.21;18669.850;  175.123;18660.095;-0.00023
 828.77;18427.632;  181.351;18397.542;-0.00072
 829.33;18143.080;  183.579;18029.323;-0.00276
 829.89;17856.862;  181.807;17638.104;-0.00541
 830.46;17459.644;  185.701;17297.218;-0.00410
 831.02;17096.092;  190.596;16895.332;-0.00519
 831.58;16776.874;  201.157;16540.779;-0.00623
 832.15;16333.989;  185.052;16128.893;-0.00555
 832.71;15911.105;  188.280;15811.341;-0.00276
 833.27;15366.553;  178.841;15353.455;-0.00037
 833.83;14960.335;  169.736;14940.569;-0.00058
 834.39;14476.117;  164.297;14394.016;-0.00250
 834.96;14071.565;  162.192;13925.464;-0.00459
 835.52;13622.680;  187.086;13474.578;-0.00481
 836.08;13179.129;  188.981;13047.025;-0.00444
 836.64;12722.577;  194.876;12619.473;-0.00359
 837.21;12244.026;  198.770;12148.920;-0.00344
 837.77;11846.474;  198.332;11759.367;-0.00326
 838.33;11483.589;  206.893;11447.148;-0.00141
 838.89;11102.371;  203.121;11001.596;-0.00403
 839.45;10629.486;  205.349;10589.710;-0.00166
 840.02;10220.935;  209.910;10134.490;-0.00377
 840.58; 9868.383;  201.805; 9836.938;-0.00142
 841.14; 9522.165;  224.699; 9457.052;-0.00305
 841.70; 9081.613;  220.594; 9049.833;-0.00156
 842.26; 8639.062;  218.155; 8613.280;-0.00133
 842.82; 8235.510;  209.050; 8233.061;-0.00013
 843.39; 7835.292;  200.278; 7802.175;-0.00189
 843.95; 7499.741;  213.839; 7446.956;-0.00316
 844.51; 7090.189;  213.734; 7076.737;-0.00085
 845.07; 6844.971;  223.295; 6751.184;-0.00620
 845.63; 6525.086;  228.523; 6447.965;-0.00535
 846.19; 6363.868;  213.418; 6205.745;-0.01131
 846.75; 6117.983;  212.646; 6042.860;-0.00556
 847.32; 5874.098;  191.874; 5828.307;-0.00351
 847.88; 5613.547;  198.435; 5647.088; 0.00268
 848.44; 5458.995;  182.996; 5418.202;-0.00337
 849.00; 5343.110;  188.224; 5206.649;-0.01165
 849.56; 5268.225;  183.119; 5035.763;-0.02032
 850.12; 5095.007;  176.680; 4913.211;-0.01636
 850.68; 4982.789;  181.908; 4877.325;-0.00965
 851.24; 4890.904;  184.136; 4806.439;-0.00786
 851.80; 4903.019;  199.364; 4790.220;-0.01054
 852.37; 4866.134;  196.592; 4731.334;-0.01272
 852.93; 4817.583;  204.820; 4729.448;-0.00838
 853.49; 4751.698;  212.715; 4650.895;-0.00975
 854.05; 4725.147;  223.943; 4597.676;-0.01248
 854.61; 4704.595;  224.171; 4520.790;-0.01819
 855.17; 4696.044;  234.066; 4501.904;-0.01932
 855.73; 4691.159;  222.627; 4484.352;-0.02058
 856.29; 4666.940;  213.855; 4475.132;-0.01912
 856.85; 4631.056;  192.749; 4517.913;-0.01121
 857.41; 4659.504;  203.644; 4600.027;-0.00584
 857.97; 4689.286;  205.205; 4760.141; 0.00681
 858.53; 4831.068;  207.433; 4902.255; 0.00664
 859.09; 5039.850;  192.328; 5028.370;-0.00103
 859.65; 5379.965;  184.889; 5166.484;-0.01822
 860.21; 5667.413;  182.451; 5403.598;-0.02141
 860.77; 5905.528;  179.679; 5685.045;-0.01705
 861.33; 6232.310;  189.573; 6014.826;-0.01592
 861.89; 6565.425;  205.135; 6331.273;-0.01629
 862.45; 6965.540;  215.363; 6656.387;-0.02036
 863.01; 7230.656;  205.924; 6960.168;-0.01705
 863.57; 7583.771;  191.152; 7240.949;-0.02062
 864.13; 7905.219;  180.713; 7598.730;-0.01758
 864.69; 8302.668;  188.608; 7928.510;-0.02050
 865.25; 8678.116;  208.502; 8274.958;-0.02118
 865.81; 8977.565;  215.730; 8598.739;-0.01920
 866.37; 9335.346;  213.625; 8883.853;-0.02205
 866.93; 9651.461;  200.853; 9198.967;-0.02131
 867.49;10004.910;  216.081; 9536.081;-0.02131
 868.05;10216.025;  210.642; 9849.195;-0.01622
 868.61;10496.474;  206.870;10116.309;-0.01635
 869.17;10854.589;  185.765;10306.090;-0.02292
 869.73;11194.037;  202.660;10652.537;-0.02194
 870.29;11512.819;  209.554;10985.985;-0.02073
 870.85;11773.934;  212.115;11316.099;-0.01755
 871.41;12147.049;  192.010;11700.213;-0.01654
 871.97;12495.498;  179.571;12032.994;-0.01662
 872.53;12919.280;  184.799;12414.108;-0.01758
 873.09;13331.395;  192.361;12748.222;-0.01972
 873.65;13715.510;  202.922;13125.336;-0.01939
 874.20;14118.625;  204.150;13530.783;-0.01875
 874.76;14459.292;  206.483;13844.450;-0.01915
 875.32;14881.625;  199.150;14344.450;-0.01619
 875.88;15227.625;  204.817;14722.117;-0.01487
 876.44;15571.625;  218.150;15059.450;-0.01473
 877.00;15838.625;  218.150;15358.117;-0.01357
 877.56;16193.625;  215.483;15696.450;-0.01373
 878.12;16588.958;  204.483;16104.450;-0.01304
 878.68;16940.625;  211.817;16344.450;-0.01576
 879.23;17182.625;  207.150;16637.783;-0.01417
 879.79;17428.625;  220.483;16875.783;-0.01418
 880.35;17675.958;  205.150;17127.117;-0.01386
 880.91;17908.292;  192.150;17367.783;-0.01346
 881.47;18107.625;  175.817;17611.783;-0.01218
 882.03;18443.958;  191.483;17929.783;-0.01241
 882.59;18679.625;  204.150;18199.450;-0.01144
 883.14;18933.292;  217.150;18423.117;-0.01200
 883.70;19047.625;  220.150;18492.117;-0.01301
 884.26;19211.292;  217.483;18606.117;-0.01406
 884.82;19287.958;  200.150;18627.783;-0.01529
 885.38;19174.292;  184.483;18693.783;-0.01113
 885.94;19145.292;  186.817;18692.783;-0.01049
 886.49;19093.292;  200.150;18759.783;-0.00773
 887.05;19187.292;  192.817;18819.450;-0.00849
 887.61;19136.292;  182.817;18766.450;-0.00856
 888.17;19048.625;  175.817;18655.450;-0.00914
 888.73;18910.625;  189.483;18492.450;-0.00981
 889.28;18671.958;  190.150;18251.117;-0.01000
 889.84;18610.958;  191.817;18020.450;-0.01415
 890.40;18488.958;  194.817;17792.450;-0.01686
 890.96;18403.625;  199.483;17628.450;-0.01890
 891.51;18153.958;  189.483;17470.117;-0.01685
 892.07;17863.292;  183.817;17244.117;-0.01548
 892.63;17762.958;  190.483;17036.783;-0.01833
 893.19;17593.292;  200.817;16880.117;-0.01818
 893.74;17501.292;  215.150;16772.783;-0.01870
 894.30;17254.958;  206.150;16671.450;-0.01512
 894.86;17077.625;  185.150;16510.450;-0.01483
 895.42;16939.958;  176.483;16397.450;-0.01429
 895.97;16775.958;  175.150;16362.450;-0.01095
 896.53;16756.625;  203.817;16299.450;-0.01216
 897.09;16684.958;  212.817;16258.117;-0.01140
 897.65;16672.292;  225.483;16079.783;-0.01593
 898.20;16588.292;  228.483;15994.117;-0.01607
 898.76;16563.625;  215.150;15888.117;-0.01833
 899.32;16530.625;  215.483;15824.450;-0.01922
 899.87;16413.292;  206.483;15765.117;-0.01773
 900.43;16258.292;  206.150;15631.783;-0.01729
 900.99;16118.292;  194.483;15508.450;-0.01696
 901.54;15926.625;  181.150;15319.450;-0.01708
 902.10;15641.958;  193.150;15133.117;-0.01455
 902.66;15425.958;  208.483;14918.117;-0.01474
 903.21;15285.958;  221.817;14754.117;-0.01561
 903.77;15207.292;  229.483;14588.450;-0.01833
 904.33;14970.625;  209.483;14443.783;-0.01578
 904.88;14854.958;  198.150;14329.783;-0.01585
 905.44;14818.292;  177.150;14293.450;-0.01585
 906.00;14803.625;  191.150;14324.117;-0.01449
 906.55;14695.625;  207.483;14294.117;-0.01221
 907.11;14535.958;  214.150;14239.117;-0.00910
 907.67;14416.958;  205.817;14016.117;-0.01243
 908.22;14225.958;  196.150;13855.783;-0.01161
 908.78;14141.292;  187.817;13715.783;-0.01345
 909.33;14013.292;  195.483;13616.783;-0.01264
 909.89;13911.292;  192.150;13488.783;-0.01359
 910.45;13766.625;  201.150;13406.783;-0.01168
 911.00;13712.958;  191.483;13362.117;-0.01142
 911.56;13698.625;  203.817;13272.117;-0.01395
 912.12;13606.625;  208.483;13101.117;-0.01670
 912.67;13545.625;  221.483;12951.117;-0.01982
 913.23;13303.292;  194.150;12807.450;-0.01675
 913.78;13161.625;  178.483;12651.783;-0.01740
 914.34;13045.292;  201.483;12642.117;-0.01385
 914.89;13009.292;  216.483;12543.117;-0.01612
 915.45;12934.958;  227.150;12558.117;-0.01307
 916.01;12774.292;  195.483;12386.117;-0.01361
 916.56;12690.958;  201.483;12282.450;-0.01444
 917.12;12605.958;  196.817;12063.117;-0.01943
 917.67;12518.625;  195.483;11981.117;-0.01937
 918.23;12409.958;  182.817;11944.450;-0.01686
 918.78;12306.958;  186.483;11927.117;-0.01383
 919.34;12119.292;  188.817;11843.783;-0.01015
 919.89;12004.292;  199.150;11694.117;-0.01156
 920.45;11825.958;  185.817;11531.783;-0.01112
 921.00;11746.958;  168.817;11330.783;-0.01590
 921.56;11631.292;  176.150;11296.783;-0.01287
 922.11;11523.625;  175.150;11154.450;-0.01436
 922.67;11394.292;  202.483;11048.450;-0.01363
 923.22;11178.625;  191.150;10815.450;-0.01460
 923.78;10972.958;  202.817;10632.117;-0.01397
 924.33;10813.625;  195.817;10497.117;-0.01314
 924.89;10634.958;  196.483;10361.117;-0.01155
 925.44;10562.292;  204.817;10248.117;-0.01338
 926.00;10400.625;  201.150;10018.783;-0.01657
 926.55;10343.292;  205.150; 9867.117;-0.02089
 927.11;10162.292;  188.150; 9720.450;-0.01968
 927.66;10054.292;  177.817; 9717.117;-0.01509
 928.22; 9961.292;  174.483; 9670.783;-0.01309
 928.77; 9923.292;  190.150; 9636.117;-0.01301
 929.33; 9905.292;  204.150; 9587.783;-0.01445
 929.88; 9878.625;  205.150; 9516.450;-0.01657
 930.43; 9887.958;  182.483; 9493.450;-0.01802
 930.99; 9894.625;  174.817; 9470.117;-0.01939
 931.54; 9864.958;  167.150; 9456.783;-0.01868
 932.10; 9853.292;  190.150; 9473.117;-0.01743
 932.65; 9850.625;  197.150; 9480.117;-0.01700
 933.21; 9859.958;  198.483; 9496.450;-0.01666
 933.76; 9851.958;  187.483; 9472.117;-0.01741
 934.31; 9821.958;  183.150; 9454.117;-0.01690
 934.87; 9776.292;  190.150; 9433.783;-0.01580
 935.42; 9780.958;  199.483; 9431.450;-0.01614
 935.98; 9724.958;  195.483; 9388.450;-0.01561
 936.53; 9760.292;  193.817; 9335.450;-0.01973
 937.08; 9681.292;  191.150; 9347.783;-0.01554
 937.64; 9692.958;  197.817; 9356.783;-0.01565
 938.19; 9627.958;  196.483; 9425.117;-0.00944
 938.74; 9622.625;  199.817; 9340.117;-0.01322
 939.30; 9624.292;  187.150; 9339.783;-0.01329
 939.85; 9624.625;  186.483; 9209.783;-0.01952
 940.40; 9622.958;  173.817; 9251.783;-0.01740
 940.96; 9593.292;  187.150; 9238.450;-0.01670
 941.51; 9583.292;  189.483; 9244.783;-0.01594
 942.06; 9560.958;  197.150; 9160.450;-0.01898
 942.62; 9466.958;  184.817; 9036.783;-0.02061
 943.17; 9388.958;  195.150; 8966.450;-0.02043
 943.72; 9237.958;  180.483; 8903.117;-0.01636
 944.28; 9200.958;  199.483; 8795.117;-0.02004
 944.83; 9066.292;  184.150; 8766.783;-0.01490
 945.38; 9083.958;  194.483; 8735.117;-0.01739
 945.94; 9015.625;  186.483; 8804.450;-0.01051
 946.49; 9012.292;  205.150; 8772.783;-0.01197
 947.04; 9017.958;  208.817; 8738.117;-0.01402
 947.60; 8917.292;  215.150; 8638.117;-0.01416
 948.15; 8876.625;  203.483; 8519.117;-0.01828
 948.70; 8686.292;  212.817; 8413.783;-0.01420
 949.25; 8584.625;  206.150; 8325.117;-0.01366
 949.81; 8482.292;  208.817; 8271.117;-0.01123
 950.36; 8383.292;  198.483; 8157.117;-0.01217
 950.91; 8285.625;  207.150; 8037.783;-0.01353
 951.46; 8120.292;  203.817; 7873.117;-0.01378
 952.02; 7982.292;  207.150; 7734.117;-0.01409
 952.57; 7824.625;  207.150; 7606.450;-0.01262
 953.12; 7725.958;  218.483; 7526.117;-0.01172
 953.67; 7594.958;  218.150; 7443.783;-0.00899
 954.23; 7557.625;  215.817; 7359.450;-0.01188
 954.78; 7456.625;  208.150; 7234.450;-0.01352
 955.33; 7317.958;  218.150; 7119.783;-0.01229
 955.88; 7240.625;  217.150; 6980.117;-0.01641
 956.44; 7121.625;  230.483; 6838.450;-0.01822
 956.99; 7102.292;  228.817; 6737.117;-0.02371
 957.54; 6975.625;  223.817; 6672.783;-0.01993
 958.09; 6938.292;  222.150; 6636.783;-0.01995
 958.64; 6836.292;  206.817; 6607.450;-0.01526
 959.20; 6804.958;  203.483; 6532.450;-0.01831
 959.75; 6739.958;  199.817; 6496.450;-0.01648
 960.30; 6706.625;  218.150; 6441.783;-0.01810
 960.85; 6676.625;  225.150; 6424.450;-0.01732
 961.40; 6682.292;  228.817; 6381.117;-0.02076
 961.95; 6689.958;  231.817; 6360.783;-0.02272
 962.51; 6704.625;  239.483; 6360.117;-0.02378
 963.06; 6707.958;  242.817; 6380.117;-0.02260
 963.61; 6714.292;  234.150; 6314.783;-0.02764
 964.16; 6636.625;  235.150; 6258.450;-0.02645
 964.71; 6574.625;  222.483; 6212.117;-0.02552
 965.26; 6559.958;  213.150; 6253.117;-0.02152
 965.81; 6586.292;  210.817; 6289.117;-0.02073
 966.36; 6599.958;  208.483; 6323.783;-0.01918
 966.92; 6580.958;  216.150; 6305.117;-0.01924
 967.47; 6583.292;  218.483; 6338.117;-0.01706
 968.02; 6627.292;  232.483; 6354.117;-0.01896
 968.57; 6688.625;  234.817; 6375.450;-0.02160
 969.12; 6751.958;  219.817; 6368.783;-0.02625
 969.67; 6761.292;  204.483; 6420.783;-0.02316
 970.22; 6826.958;  194.150; 6469.783;-0.02404
 970.77; 6898.958;  199.817; 6539.117;-0.02398
 971.32; 7026.292;  197.483; 6593.117;-0.02846
 971.87; 7141.958;  198.817; 6693.117;-0.02902
 972.42; 7282.625;  215.150; 6793.117;-0.03117
 972.98; 7325.292;  220.817; 6908.783;-0.02624
 973.53; 7400.625;  231.483; 6996.117;-0.02522
 974.08; 7393.625;  215.483; 7040.450;-0.02191
 974.63; 7494.292;  223.483; 7078.450;-0.02558
 975.18; 7489.292;  218.483; 7103.117;-0.02370
 975.73; 7545.958;  224.817; 7157.450;-0.02368
 976.28; 7547.625;  221.483; 7219.117;-0.01992
 976.83; 7614.292;  221.483; 7315.450;-0.01792
 977.38; 7641.958;  219.483; 7373.783;-0.01598
 977.93; 7705.292;  222.150; 7387.450;-0.01885
 978.48; 7676.292;  228.483; 7365.783;-0.01849
 979.03; 7686.625;  234.817; 7358.117;-0.01958
 979.58; 7680.625;  221.483; 7329.117;-0.02096
 980.13; 7739.625;  207.150; 7367.783;-0.02199
 980.68; 7705.292;  186.483; 7310.450;-0.02343
 981.23; 7610.958;  185.817; 7278.117;-0.01992
 981.78; 7589.625;  207.150; 7207.450;-0.02309
 982.33; 7571.958;  219.150; 7257.117;-0.01901
 982.88; 7572.625;  232.483; 7211.783;-0.02189
 983.43; 7463.958;  218.150; 7145.783;-0.01950
 983.98; 7370.625;  215.150; 6984.117;-0.02412
 984.53; 7305.958;  203.817; 6873.450;-0.02729
 985.08; 7265.292;  209.817; 6835.783;-0.02728
 985.63; 7176.958;  211.150; 6787.117;-0.02501
 986.18; 7066.625;  218.817; 6756.783;-0.02011
 986.73; 6951.292;  218.483; 6610.450;-0.02256
 987.27; 6900.958;  227.483; 6521.117;-0.02545
 987.82; 6835.292;  238.483; 6431.783;-0.02741
 988.37; 6780.292;  243.150; 6400.783;-0.02597
 988.92; 6709.958;  234.150; 6351.117;-0.02476
 989.47; 6617.625;  214.483; 6285.117;-0.02316
 990.02; 6529.958;  208.483; 6199.117;-0.02335
 990.57; 6470.292;  208.150; 6083.117;-0.02772
 991.12; 6404.292;  215.150; 6044.450;-0.02601
 991.67; 6292.292;  213.817; 5969.117;-0.02373
 992.22; 6198.292;  200.483; 5915.450;-0.02098
 992.77; 6122.292;  200.150; 5802.450;-0.02411
 993.31; 6041.292;  204.817; 5735.783;-0.02335
 993.86; 5941.625;  230.483; 5683.783;-0.02006
 994.41; 5824.292;  235.150; 5580.117;-0.01940
 994.96; 5703.958;  226.483; 5473.117;-0.01870
 995.51; 5573.958;  218.817; 5377.783;-0.01621
 996.06; 5462.292;  208.483; 5293.783;-0.01416
 996.61; 5358.292;  222.483; 5201.783;-0.01344
 997.15; 5258.292;  236.150; 5083.450;-0.01539
 997.70; 5165.292;  241.150; 4965.117;-0.01802
 998.25; 5044.958;  247.483; 4873.450;-0.01581
 998.80; 4926.292;  248.483; 4740.117;-0.01764
 999.35; 4806.292;  249.483; 4623.450;-0.01779
 999.90; 4682.292;  236.150; 4455.117;-0.02278
1000.44; 4558.625;  224.483; 4340.450;-0.02243
1000.99; 4407.292;  232.483; 4190.783;-0.02313
1001.54; 4279.958;  237.150; 4067.450;-0.02345
1002.09; 4103.958;  231.817; 3939.117;-0.01889
1002.64; 3991.292;  238.483; 3855.450;-0.01601
1003.18; 3910.958;  240.483; 3766.783;-0.01740
1003.73; 3847.292;  238.483; 3661.450;-0.02296
1004.28; 3754.292;  226.817; 3584.450;-0.02143
1004.83; 3644.292;  209.483; 3488.117;-0.02021
1005.38; 3584.625;  210.150; 3420.783;-0.02162
1005.92; 3527.625;  219.150; 3321.783;-0.02790
1006.47; 3476.958;  236.817; 3231.783;-0.03417
1007.02; 3375.625;  235.483; 3140.117;-0.03386
1007.57; 3287.292;  222.817; 3087.450;-0.02929
1008.11; 3256.292;  211.817; 3028.450;-0.03378
1008.66; 3181.292;  205.150; 2973.450;-0.03144
1009.21; 3077.958;  192.483; 2907.783;-0.02640
1009.75; 2959.958;  177.817; 2862.117;-0.01555
1010.30; 2880.958;  170.150; 2793.117;-0.01431
1010.85; 2843.625;  176.817; 2712.783;-0.02185
1011.40; 2757.958;  204.150; 2628.450;-0.02260
1011.94; 2696.958;  221.817; 2545.783;-0.02737
1012.49; 2606.625;  216.483; 2464.450;-0.02663
1013.04; 2507.292;  194.150; 2362.117;-0.02815
1013.58; 2409.292;  184.150; 2325.117;-0.01675
1014.13; 2359.625;  188.483; 2268.117;-0.01870
1014.68; 2316.958;  196.483; 2233.450;-0.01745
1015.23; 2275.292;  203.150; 2181.450;-0.02013
1015.77; 2206.958;  199.817; 2113.117;-0.02079
1016.32; 2160.625;  204.817; 2072.450;-0.02003
1016.87; 2112.958;  209.483; 2012.783;-0.02348
1017.41; 2078.958;  206.817; 1977.450;-0.02421
1017.96; 2036.958;  194.817; 1953.450;-0.02015
1018.50; 1997.625;  186.483; 1926.450;-0.01741
1019.05; 1935.958;  188.483; 1903.450;-0.00816
1019.60; 1889.292;  182.817; 1815.783;-0.01912
1020.14; 1840.958;  196.150; 1752.783;-0.02393
1020.69; 1797.292;  196.150; 1698.117;-0.02777
1021.24; 1736.292;  209.483; 1650.450;-0.02513
1021.78; 1689.292;  188.483; 1620.450;-0.02039
1022.33; 1637.958;  190.150; 1592.450;-0.01387
1022.87; 1615.958;  182.817; 1587.783;-0.00862
1023.42; 1575.625;  198.150; 1567.117;-0.00269
1023.97; 1520.958;  200.150; 1516.117;-0.00159
1024.51; 1470.625;  212.150; 1465.117;-0.00191
1025.06; 1421.625;  200.483; 1401.117;-0.00736
1025.60; 1422.625;  198.817; 1340.783;-0.03006
1026.15; 1383.958;  181.150; 1307.783;-0.02841
1026.70; 1363.292;  185.483; 1284.783;-0.02996
1027.24; 1331.625;  195.483; 1279.783;-0.02028
1027.79; 1341.625;  200.483; 1270.450;-0.02797
1028.33; 1321.958;  197.483; 1252.450;-0.02771
1028.88; 1285.958;  188.817; 1215.450;-0.02885
1029.42; 1244.292;  208.150; 1198.450;-0.01965
1029.97; 1204.625;  197.817; 1156.450;-0.02129
1030.51; 1174.958;  190.150; 1127.117;-0.02163
1031.06; 1146.625;  182.817; 1088.783;-0.02688
1031.61; 1148.625;  192.483; 1063.117;-0.04069
1032.15; 1132.958;  210.150; 1050.450;-0.04068
1032.70; 1112.958;  202.817; 1024.117;-0.04461
1033.24; 1064.625;  206.483; 1018.117;-0.02420
1033.79; 1055.958;  200.817; 1020.450;-0.01842
1034.33; 1034.958;  199.817; 1016.450;-0.00973
1034.88; 1034.625;  201.817; 1008.783;-0.01369
1035.42; 1008.625;  202.817;  979.450;-0.01602
1035.97;  987.958;  204.483;  950.450;-0.02131
1036.51;  992.958;  206.483;  931.450;-0.03537
1037.06;  983.625;  200.817;  944.117;-0.02249
1037.60;  991.958;  207.150;  948.783;-0.02457
1038.14;  976.958;  204.150;  928.783;-0.02795
1038.69;  991.292;  222.150;  927.783;-0.03743
1039.23;  973.958;  234.483;  935.783;-0.02302
1039.78;  965.292;  235.150;  948.783;-0.00993
1040.32;  935.625;  224.483;  915.783;-0.01229
1040.87;  944.625;  208.483;  887.117;-0.03533
1041.41;  933.625;  198.150;  864.117;-0.04312
1041.96;  939.625;  200.817;  882.783;-0.03477
1042.50;  929.292;  197.817;  893.117;-0.02203
1043.04;  941.958;  213.817;  899.117;-0.02634
1043.59;  937.625;  217.150;  867.450;-0.04451
1044.13;  922.958;  212.483;  869.450;-0.03401
1044.68;  916.625;  205.817;  862.117;-0.03465
1045.22;  906.292;  199.150;  873.783;-0.02044
1045.76;  893.292;  201.817;  869.450;-0.01524
1046.31;  870.292;  193.483;  861.783;-0.00549
1046.85;  865.625;  200.483;  842.117;-0.01563
1047.40;  852.292;  202.483;  813.783;-0.02653
1047.94;  855.958;  215.150;  808.783;-0.03321
1048.48;  845.958;  211.150;  810.117;-0.02524
1049.03;  847.958;  214.483;  793.450;-0.03908
1049.57;  852.958;  229.150;  787.117;-0.04844
1050.11;  844.292;  222.817;  774.117;-0.05204
1050.66;  840.625;  218.483;  779.117;-0.04521
1051.20;  818.958;  206.483;  794.450;-0.01774
1051.74;  801.958;  200.817;  788.117;-0.01012
1052.29;  789.292;  200.150;  780.783;-0.00632
1052.83;  765.625;  199.150;  748.117;-0.01363
1053.37;  763.292;  224.817;  744.783;-0.01519
1053.92;  756.292;  234.150;  739.783;-0.01395
1054.46;  768.292;  236.483;  734.117;-0.02885
1055.00;  782.625;  231.483;  739.117;-0.03571
1055.55;  796.958;  230.817;  738.117;-0.04766
1056.09;  792.625;  223.817;  747.783;-0.03566
1056.63;  742.292;  215.817;  711.783;-0.02593
1057.17;  711.625;  216.483;  709.117;-0.00221
1057.72;  701.958;  225.150;  697.450;-0.00413
1058.26;  719.292;  223.483;  705.783;-0.01200
1058.80;  739.625;  229.817;  700.450;-0.03472
1059.35;  729.292;  230.483;  686.450;-0.03900
1059.89;  713.958;  230.150;  672.450;-0.03896
1060.43;  689.958;  227.817;  654.783;-0.03438
1060.97;  655.958;  223.817;  667.117; 0.01107
1061.52;  657.958;  231.150;  682.450; 0.02423
1062.06;  651.292;  231.483;  671.450; 0.02037
1062.60;  661.625;  236.483;  658.450;-0.00326
1063.14;  662.292;  232.483;  640.783;-0.02230
1063.69;  655.958;  216.483;  640.117;-0.01594
1064.23;  669.625;  208.817;  619.783;-0.04971
1064.77;  653.625;  200.483;  598.450;-0.05639
1065.31;  646.292;  201.817;  577.450;-0.07308
1065.85;  613.958;  206.483;  567.117;-0.05304
1066.40;  605.625;  205.150;  579.450;-0.02936
1066.94;  605.625;  217.817;  579.117;-0.03075
1067.48;  615.625;  209.150;  587.783;-0.03081
1068.02;  617.292;  233.817;  562.450;-0.06703
1068.56;  595.958;  216.817;  564.783;-0.03726
1069.10;  562.958;  212.817;  549.783;-0.01666
1069.65;  555.625;  195.817;  566.450; 0.01287
1070.19;  565.958;  208.817;  566.783; 0.00100
1070.73;  584.292;  223.817;  582.783;-0.00182
1071.27;  581.625;  215.817;  567.117;-0.01758
1071.81;  571.625;  207.150;  562.117;-0.01148
1072.35;  578.625;  201.817;  549.117;-0.03542
1072.90;  583.625;  197.150;  546.783;-0.04351
1073.44;  578.292;  202.817;  540.117;-0.04656
1073.98;  555.625;  206.150;  531.450;-0.03113
1074.52;  533.292;  224.483;  538.783; 0.00766
1075.06;  518.625;  218.483;  542.450; 0.03317
1075.60;  513.625;  207.483;  531.450; 0.02458
1076.14;  522.958;  204.817;  514.117;-0.01224
1076.68;  527.625;  207.150;  504.450;-0.03260
1077.22;  525.292;  225.817;  504.783;-0.03081
1077.76;  513.292;  214.817;  498.117;-0.02266
1078.31;  505.625;  229.817;  499.783;-0.00930
1078.85;  516.958;  226.483;  517.117; 0.00024
1079.39;  517.958;  243.817;  525.450; 0.01171
1079.93;  537.958;  237.817;  507.783;-0.04602
1080.47;  532.625;  227.483;  476.450;-0.08836
1081.01;  520.958;  216.150;  474.783;-0.07134
1081.55;  498.625;  208.483;  488.783;-0.01499
1082.09;  496.292;  205.817;  488.783;-0.01137
1082.63;  517.625;  210.150;  496.450;-0.03099
1083.17;  508.958;  221.150;  500.783;-0.01251
1083.71;  507.958;  228.817;  501.450;-0.01025
1084.25;  481.292;  224.483;  471.117;-0.01756
1084.79;  489.625;  214.483;  446.450;-0.07413
1085.33;  479.625;  202.817;  450.783;-0.04779
1085.87;  483.958;  199.483;  468.450;-0.02435
1086.41;  471.958;  214.483;  471.450;-0.00086
1086.95;  477.292;  222.150;  467.117;-0.01767
1087.49;  473.625;  225.817;  454.783;-0.03434
1088.03;  478.625;  216.817;  454.117;-0.04269
1088.57;  475.292;  219.817;  450.783;-0.04380
1089.11;  479.958;  222.150;  448.117;-0.05725
1089.65;  491.958;  233.150;  458.783;-0.05957
1090.19;  479.625;  238.483;  468.117;-0.02124
1090.73;  469.958;  240.483;  471.783; 0.00344
1091.27;  463.625;  238.817;  466.117; 0.00479
1091.81;  473.958;  238.483;  458.117;-0.03025
1092.35;  483.958;  247.483;  461.450;-0.04344
1092.89;  487.958;  232.150;  457.450;-0.05515
1093.43;  494.292;  223.817;  445.783;-0.08584
1093.97;  489.292;  210.150;  441.117;-0.08228
1094.51;  472.958;  208.483;  440.450;-0.05696
1095.04;  461.958;  218.483;  442.783;-0.03563
1095.58;  461.292;  238.817;  436.783;-0.05069
1096.12;  465.292;  242.817;  428.783;-0.07785
1096.66;  455.625;  239.817;  430.450;-0.05387
1097.20;  455.292;  235.817;  449.450;-0.01172
1097.74;  458.958;  246.817;  456.783;-0.00448
1098.28;  454.625;  235.817;  457.117; 0.00492
1098.82;  463.292;  230.483;  453.117;-0.01941
1099.36;  445.292;  228.150;  446.450; 0.00231
1099.89;  452.292;  230.150;  447.450;-0.00957

