
Integration time [ms]:   0.300
Averaging Nr. [scans]: 1
Smoothing Nr. [pixels]: 1
Data measured with spectrometer [name]: 1906252U1
Wave   ;Sample   ;Dark     ;Reference;Absorbance
[nm]   ;[counts] ;[counts] ;[counts] ;[A.U]

 161.30;  264.918;  271.207;  271.637; 0.00000
 161.90;  254.625;  265.524;  261.712; 0.00000
 162.51;  262.999;  259.038;  260.433;-0.45347
 163.11;  269.408;  265.693;  251.834; 0.00000
 163.71;  275.040;  276.696;  266.803; 0.00000
 164.31;  279.048;  294.270;  273.488; 0.00000
 164.91;  278.643;  288.393;  287.410; 0.00000
 165.52;  272.172;  277.299;  279.261; 5.00000
 166.12;  264.313;  271.979;  273.718; 5.00000
 166.72;  267.021;  272.971;  259.755; 0.00000
 167.32;  285.635;  271.656;  271.040; 0.00000
 167.93;  284.792;  261.266;  267.518;-0.57553
 168.53;  275.231;  254.112;  260.296;-0.53343
 169.13;  263.189;  264.427;  257.261; 0.00000
 169.73;  267.279;  271.677;  266.351; 0.00000
 170.33;  306.423;  291.614;  320.561; 0.29109
 170.94;  324.812;  317.756;  347.746; 0.62842
 171.54;  336.887;  335.278;  387.239; 1.50909
 172.14;  338.512;  338.926;  375.538; 5.00000
 172.74;  336.832;  324.358;  373.181; 0.59262
 173.34;  346.547;  319.589;  355.569; 0.12537
 173.95;  340.238;  309.596;  343.923; 0.04932
 174.55;  348.543;  318.289;  355.228; 0.08670
 175.15;  347.136;  320.689;  367.155; 0.24477
 175.75;  333.850;  322.370;  380.195; 0.70218
 176.35;  344.009;  332.415;  382.036; 0.63143
 176.95;  348.862;  327.740;  392.907; 0.48928
 177.56;  351.308;  327.608;  398.355; 0.47497
 178.16;  342.260;  316.738;  399.298; 0.50985
 178.76;  348.461;  316.306;  398.487; 0.40752
 179.36;  356.996;  310.874;  401.343; 0.29259
 179.96;  363.140;  304.800;  395.813; 0.19314
 180.56;  361.957;  308.938;  392.969; 0.20000
 181.17;  374.755;  318.009;  403.448; 0.17772
 181.77;  388.815;  318.897;  417.181; 0.14789
 182.37;  378.082;  306.653;  404.111; 0.13495
 182.97;  400.093;  319.309;  413.789; 0.06802
 183.57;  401.586;  323.525;  427.944; 0.12635
 184.17;  419.751;  336.736;  473.104; 0.21556
 184.78;  414.239;  316.624;  484.587; 0.23570
 185.38;  418.147;  315.012;  504.833; 0.26494
 185.98;  438.607;  315.783;  504.638; 0.18685
 186.58;  460.413;  316.598;  510.449; 0.12966
 187.18;  474.971;  313.002;  491.678; 0.04263
 187.78;  498.360;  324.256;  526.070; 0.06414
 188.38;  503.451;  331.840;  541.159; 0.08627
 188.98;  506.824;  337.804;  574.199; 0.14570
 189.59;  485.500;  332.575;  567.529; 0.18650
 190.19;  483.364;  326.870;  580.708; 0.21006
 190.79;  487.255;  326.914;  573.939; 0.18770
 191.39;  488.591;  317.159;  564.285; 0.15883
 191.99;  484.012;  322.498;  545.363; 0.13983
 192.59;  478.584;  317.307;  539.929; 0.14000
 193.19;  476.688;  313.765;  525.712; 0.11424
 193.79;  474.585;  325.164;  530.280; 0.13759
 194.39;  453.313;  328.250;  517.658; 0.18027
 195.00;  438.809;  327.216;  511.139; 0.21700
 195.60;  415.061;  305.566;  480.732; 0.20405
 196.20;  417.126;  304.088;  469.473; 0.16527
 196.80;  404.648;  305.278;  453.989; 0.17509
 197.40;  397.171;  313.686;  455.186; 0.22915
 198.00;  389.767;  320.693;  452.457; 0.28048
 198.60;  389.261;  317.270;  442.943; 0.24196
 199.20;  385.507;  312.435;  427.513; 0.19724
 199.80;  371.093;  303.957;  416.753; 0.22534
 200.40;  354.205;  299.492;  396.868; 0.25036
 201.00;  331.761;  293.841;  371.434; 0.31096
 201.60;  318.726;  292.845;  340.403; 0.26424
 202.21;  320.895;  298.995;  352.240; 0.38583
 202.81;  324.881;  303.760;  367.883; 0.48230
 203.41;  324.263;  301.801;  377.921; 0.53006
 204.01;  314.952;  296.447;  373.611; 0.62012
 204.61;  317.146;  287.965;  374.799; 0.47360
 205.21;  326.019;  280.528;  391.328; 0.38661
 205.81;  326.598;  276.000;  394.567; 0.36983
 206.41;  326.358;  281.190;  389.667; 0.38050
 207.01;  311.197;  291.585;  373.516; 0.62094
 207.61;  301.562;  290.832;  349.221; 0.73574
 208.21;  301.434;  294.007;  340.088; 0.79270
 208.81;  311.394;  285.376;  350.048; 0.39544
 209.41;  310.619;  292.971;  355.294; 0.54794
 210.01;  300.146;  286.985;  361.835; 0.75489
 210.61;  303.639;  290.534;  351.990; 0.67112
 211.21;  305.213;  293.399;  356.219; 0.72568
 211.81;  325.269;  300.157;  352.258; 0.31696
 212.41;  303.190;  301.896;  344.513; 1.51766
 213.01;  313.954;  296.332;  351.625; 0.49662
 213.61;  299.665;  285.263;  357.339; 0.69937
 214.21;  313.414;  282.939;  368.411; 0.44789
 214.81;  302.733;  278.704;  361.387; 0.53668
 215.41;  302.660;  282.466;  362.645; 0.59883
 216.01;  306.202;  278.247;  362.189; 0.47751
 216.61;  307.799;  287.920;  357.792; 0.54591
 217.21;  308.057;  290.599;  357.391; 0.58274
 217.81;  307.804;  297.221;  367.800; 0.82408
 218.41;  314.087;  301.628;  379.081; 0.79357
 219.01;  326.502;  307.801;  388.505; 0.63503
 219.61;  335.237;  301.739;  384.906; 0.39493
 220.21;  334.851;  297.568;  378.507; 0.33665
 220.81;  333.062;  283.737;  372.713; 0.25621
 221.41;  334.039;  284.091;  376.024; 0.26495
 222.01;  333.068;  280.426;  372.049; 0.24067
 222.61;  322.461;  298.953;  367.451; 0.46446
 223.21;  316.093;  301.813;  357.103; 0.58792
 223.81;  323.671;  301.952;  360.676; 0.43196
 224.41;  324.640;  281.875;  343.618; 0.15950
 225.01;  302.948;  269.317;  340.250; 0.32411
 225.61;  308.051;  274.108;  341.033; 0.29483
 226.21;  301.923;  273.112;  349.918; 0.42584
 226.81;  308.509;  286.490;  349.175; 0.45437
 227.41;  297.950;  284.059;  344.282; 0.63701
 228.01;  314.252;  302.172;  351.241; 0.60874
 228.61;  344.167;  306.727;  360.474; 0.15702
 229.21;  348.392;  303.825;  362.700; 0.12091
 229.81;  348.808;  308.998;  372.791; 0.20478
 230.41;  333.412;  299.055;  383.396; 0.39002
 231.01;  339.286;  300.808;  405.942; 0.43652
 231.61;  320.105;  287.307;  401.095; 0.54025
 232.21;  331.509;  300.328;  383.489; 0.42602
 232.81;  321.959;  296.307;  370.928; 0.46374
 233.41;  321.694;  302.578;  372.995; 0.56629
 234.00;  315.606;  298.240;  379.918; 0.67240
 234.60;  321.304;  290.487;  363.623; 0.37533
 235.20;  336.608;  295.152;  359.264; 0.18934
 235.80;  334.112;  295.330;  365.432; 0.25710
 236.40;  323.396;  302.765;  379.044; 0.56788
 237.00;  325.501;  303.584;  384.824; 0.56899
 237.60;  311.650;  294.000;  377.651; 0.67573
 238.20;  328.215;  295.121;  389.214; 0.45380
 238.80;  305.683;  274.112;  389.668; 0.56350
 239.40;  325.768;  279.177;  403.402; 0.42591
 240.00;  318.671;  284.599;  402.640; 0.53963
 240.59;  335.327;  298.133;  401.312; 0.44311
 241.19;  328.088;  297.989;  399.745; 0.52901
 241.79;  327.727;  288.710;  384.715; 0.39103
 242.39;  327.260;  292.222;  383.909; 0.41777
 242.99;  326.134;  286.642;  375.121; 0.35033
 243.59;  325.096;  289.230;  388.763; 0.44328
 244.19;  324.568;  286.160;  385.560; 0.41297
 244.79;  331.674;  287.511;  384.652; 0.34235
 245.39;  335.578;  287.293;  395.554; 0.35066
 245.98;  331.143;  273.053;  391.453; 0.30925
 246.58;  318.971;  274.487;  389.290; 0.41174
 247.18;  319.369;  285.342;  384.364; 0.46390
 247.78;  325.440;  295.696;  398.758; 0.53969
 248.38;  333.182;  288.656;  421.162; 0.47362
 248.98;  333.656;  277.356;  419.988; 0.40370
 249.58;  333.340;  265.673;  430.671; 0.38710
 250.17;  348.192;  275.285;  426.842; 0.31780
 250.77;  347.316;  283.143;  431.967; 0.36532
 251.37;  351.758;  286.929;  425.089; 0.32861
 251.97;  331.151;  270.293;  429.805; 0.41847
 252.57;  318.573;  265.298;  436.882; 0.50796
 253.17;  321.519;  272.929;  449.172; 0.55957
 253.77;  330.300;  284.186;  466.282; 0.59647
 254.36;  347.474;  295.474;  468.774; 0.52280
 254.96;  341.598;  295.333;  480.567; 0.60247
 255.56;  329.666;  288.604;  484.301; 0.67815
 256.16;  335.216;  278.462;  506.509; 0.60403
 256.76;  336.815;  277.524;  496.109; 0.56663
 257.36;  354.314;  276.735;  508.603; 0.47550
 257.95;  334.428;  264.992;  503.713; 0.53631
 258.55;  328.460;  264.239;  518.084; 0.59689
 259.15;  321.167;  260.564;  510.454; 0.61525
 259.75;  332.043;  269.345;  523.998; 0.60870
 260.35;  329.333;  267.461;  538.318; 0.64125
 260.94;  318.088;  268.819;  539.764; 0.74031
 261.54;  317.434;  275.530;  547.771; 0.81270
 262.14;  329.441;  279.723;  553.422; 0.74076
 262.74;  342.203;  296.084;  592.169; 0.80754
 263.34;  333.298;  285.302;  604.600; 0.82299
 263.93;  320.905;  271.414;  619.201; 0.84679
 264.53;  323.486;  269.158;  628.783; 0.82083
 265.13;  329.256;  270.950;  628.566; 0.78770
 265.73;  336.829;  275.426;  648.466; 0.78357
 266.33;  356.103;  278.566;  678.397; 0.71237
 266.92;  346.388;  275.029;  689.673; 0.76422
 267.52;  344.105;  279.954;  705.726; 0.82198
 268.12;  325.309;  273.264;  717.281; 0.93102
 268.72;  334.525;  281.951;  749.175; 0.94875
 269.31;  346.519;  293.596;  782.505; 0.96558
 269.91;  359.374;  296.813;  783.686; 0.89111
 270.51;  360.120;  298.884;  823.747; 0.93304
 271.11;  353.400;  296.018;  844.685; 0.98054
 271.70;  332.058;  281.274;  877.686; 1.06982
 272.30;  343.611;  270.568;  887.924; 0.92695
 272.90;  352.105;  264.784;  909.412; 0.86819
 273.50;  373.228;  274.785;  916.521; 0.81417
 274.09;  368.569;  285.359;  947.539; 0.90080
 274.69;  359.372;  293.425;  961.690; 1.00575
 275.29;  360.730;  297.126; 1011.041; 1.05016
 275.89;  372.212;  301.162; 1057.168; 1.02696
 276.48;  394.760;  306.441; 1108.365; 0.95808
 277.08;  399.068;  303.217; 1149.330; 0.94583
 277.68;  405.659;  300.562; 1156.928; 0.91107
 278.28;  407.461;  297.934; 1188.748; 0.91027
 278.87;  413.257;  305.120; 1219.213; 0.92702
 279.47;  422.741;  316.402; 1279.019; 0.95676
 280.07;  425.261;  311.564; 1306.537; 0.94206
 280.66;  431.859;  305.599; 1329.806; 0.90912
 281.26;  440.329;  299.502; 1356.605; 0.87543
 281.86;  457.189;  299.353; 1408.460; 0.84677
 282.46;  466.391;  289.111; 1464.667; 0.82158
 283.05;  493.575;  270.001; 1525.842; 0.74951
 283.65;  498.982;  269.267; 1577.248; 0.75541
 284.25;  506.739;  276.537; 1628.707; 0.76892
 284.84;  513.503;  297.639; 1660.819; 0.80037
 285.44;  556.384;  304.585; 1722.349; 0.75055
 286.04;  576.006;  306.626; 1767.304; 0.73419
 286.63;  579.238;  299.604; 1827.551; 0.73752
 287.23;  572.607;  285.934; 1878.582; 0.74473
 287.83;  596.340;  285.987; 1956.635; 0.73103
 288.42;  620.175;  282.947; 2012.456; 0.71000
 289.02;  640.066;  281.018; 2081.351; 0.70020
 289.62;  653.398;  274.153; 2105.373; 0.68382
 290.21;  683.906;  278.965; 2173.882; 0.67020
 290.81;  712.872;  296.139; 2171.832; 0.65330
 291.41;  722.317;  301.675; 2217.279; 0.65839
 292.00;  735.628;  287.695; 2273.257; 0.64667
 292.60;  752.621;  266.816; 2355.570; 0.63343
 293.20;  785.997;  269.053; 2441.953; 0.62360
 293.79;  789.902;  275.331; 2498.541; 0.63554
 294.39;  817.813;  284.326; 2544.463; 0.62701
 294.99;  830.788;  280.435; 2588.095; 0.62253
 295.58;  851.669;  284.687; 2619.961; 0.61477
 296.18;  877.613;  271.100; 2672.236; 0.59758
 296.78;  906.568;  267.474; 2741.524; 0.58784
 297.37;  956.950;  256.039; 2819.912; 0.56323
 297.97;  970.482;  255.858; 2927.442; 0.57269
 298.57; 1019.927;  262.727; 2989.557; 0.55645
 299.16; 1068.475;  278.359; 3083.789; 0.55031
 299.76; 1126.051;  281.775; 3176.366; 0.53510
 300.35; 1165.395;  281.214; 3269.362; 0.52886
 300.95; 1177.489;  278.404; 3324.462; 0.52994
 301.55; 1195.523;  287.229; 3346.846; 0.52744
 302.14; 1220.035;  278.314; 3431.366; 0.52481
 302.74; 1267.533;  277.164; 3537.862; 0.51751
 303.33; 1323.919;  277.506; 3665.575; 0.51025
 303.93; 1386.622;  284.053; 3763.621; 0.49912
 304.53; 1431.406;  290.889; 3809.743; 0.48930
 305.12; 1462.077;  285.666; 3889.067; 0.48615
 305.72; 1513.428;  304.345; 3962.749; 0.48084
 306.31; 1519.833;  292.556; 4062.826; 0.48743
 306.91; 1555.911;  290.122; 4183.574; 0.48797
 307.51; 1570.410;  280.000; 4278.734; 0.49119
 308.10; 1664.727;  295.710; 4394.048; 0.47620
 308.70; 1731.077;  291.190; 4468.751; 0.46259
 309.29; 1761.134;  287.634; 4547.826; 0.46108
 309.89; 1794.997;  264.902; 4638.675; 0.45614
 310.48; 1848.434;  273.673; 4739.754; 0.45271
 311.08; 1922.461;  268.620; 4876.118; 0.44497
 311.68; 1956.710;  273.221; 4959.384; 0.44461
 312.27; 1985.277;  278.703; 5074.278; 0.44872
 312.87; 2009.856;  271.869; 5225.848; 0.45491
 313.46; 2067.352;  276.691; 5385.013; 0.45526
 314.06; 2134.230;  276.193; 5529.885; 0.45141
 314.65; 2232.243;  282.238; 5632.559; 0.43834
 315.25; 2302.946;  283.262; 5774.255; 0.43437
 315.85; 2366.900;  277.637; 5914.876; 0.43107
 316.44; 2412.963;  287.913; 6071.938; 0.43486
 317.04; 2482.016;  295.255; 6216.984; 0.43265
 317.63; 2593.696;  310.823; 6400.341; 0.42610
 318.23; 2647.635;  298.737; 6546.296; 0.42485
 318.82; 2708.564;  293.221; 6674.883; 0.42195
 319.42; 2720.899;  273.276; 6781.545; 0.42472
 320.01; 2814.318;  280.055; 6929.646; 0.41894
 320.61; 2875.007;  290.511; 7164.652; 0.42484
 321.20; 2981.320;  285.758; 7272.939; 0.41365
 321.80; 3039.084;  292.860; 7497.718; 0.41889
 322.39; 3143.544;  275.154; 7636.540; 0.40932
 322.99; 3171.887;  275.755; 7857.556; 0.41795
 323.58; 3261.215;  286.597; 7977.531; 0.41255
 324.18; 3301.705;  287.901; 8124.673; 0.41502
 324.77; 3377.702;  292.485; 8318.013; 0.41519
 325.37; 3397.187;  278.984; 8442.167; 0.41796
 325.96; 3507.987;  276.253; 8588.958; 0.41031
 326.56; 3584.788;  298.768; 8771.095; 0.41133
 327.15; 3656.464;  300.036; 8947.778; 0.41103
 327.75; 3661.887;  300.925; 9129.536; 0.41943
 328.34; 3745.535;  272.723; 9291.838; 0.41448
 328.94; 3879.612;  266.072; 9447.905; 0.40500
 329.53; 4002.917;  277.765; 9658.876; 0.40111
 330.13; 4061.490;  293.098; 9872.460; 0.40518
 330.72; 4112.577;  297.428;10112.576; 0.41039
 331.32; 4224.070;  296.807;10347.750; 0.40812
 331.91; 4364.721;  286.021;10578.045; 0.40198
 332.51; 4495.797;  290.846;10832.428; 0.39914
 333.10; 4546.724;  280.941;11112.686; 0.40470
 333.69; 4584.570;  268.720;11343.870; 0.40928
 334.29; 4558.002;  259.020;11372.294; 0.41248
 334.88; 4560.938;  263.526;11404.218; 0.41371
 335.48; 4606.223;  274.151;11347.513; 0.40758
 336.07; 4629.078;  277.361;11521.065; 0.41225
 336.67; 4688.116;  271.793;11561.792; 0.40763
 337.26; 4676.731;  270.478;11724.744; 0.41490
 337.86; 4794.416;  274.661;11795.073; 0.40635
 338.45; 4862.238;  285.081;11996.201; 0.40800
 339.04; 4912.086;  280.248;12122.714; 0.40769
 339.64; 4964.869;  279.247;12324.855; 0.41006
 340.23; 5011.569;  276.541;12444.594; 0.40990
 340.83; 5147.642;  283.446;12579.002; 0.40274
 341.42; 5150.101;  284.034;12728.085; 0.40778
 342.02; 5197.743;  280.810;12860.717; 0.40798
 342.61; 5182.493;  285.029;12994.842; 0.41417
 343.20; 5266.662;  280.703;13173.363; 0.41259
 343.80; 5344.832;  275.024;13326.514; 0.41067
 344.39; 5451.773;  277.525;13574.777; 0.40991
 344.99; 5548.247;  284.701;13698.586; 0.40628
 345.58; 5586.660;  281.629;13941.331; 0.41075
 346.17; 5598.612;  272.425;14086.941; 0.41392
 346.77; 5621.513;  263.601;14425.499; 0.42213
 347.36; 5701.425;  267.766;14640.403; 0.42244
 347.96; 5838.766;  271.456;14918.073; 0.42009
 348.55; 5978.429;  272.039;15018.413; 0.41232
 349.14; 6060.608;  269.152;15148.264; 0.40979
 349.74; 6172.657;  282.193;15379.635; 0.40875
 350.33; 6239.309;  292.264;15619.281; 0.41116
 350.92; 6322.107;  292.029;15990.758; 0.41554
 351.52; 6328.725;  276.988;16197.719; 0.42008
 352.11; 6405.707;  277.642;16449.038; 0.42142
 352.70; 6524.470;  293.221;16652.467; 0.41919
 353.30; 6660.366;  299.069;16923.354; 0.41720
 353.89; 6760.500;  289.556;17199.826; 0.41718
 354.49; 6853.125;  295.537;17471.125; 0.41817
 355.08; 6914.911;  303.789;17648.240; 0.41889
 355.67; 6956.551;  306.509;17850.877; 0.42131
 356.27; 6995.761;  292.678;18013.082; 0.42220
 356.86; 7084.727;  288.376;18230.048; 0.42159
 357.45; 7194.010;  297.756;18507.331; 0.42169
 358.05; 7332.301;  297.214;18684.613; 0.41725
 358.64; 7397.317;  292.504;18894.298; 0.41800
 359.23; 7487.175;  289.300;19081.825; 0.41678
 359.83; 7503.736;  289.121;19433.380; 0.42383
 360.42; 7594.948;  293.174;19722.600; 0.42503
 361.01; 7658.510;  287.355;19981.487; 0.42680
 361.61; 7731.569;  287.502;20183.522; 0.42696
 362.20; 7848.100;  294.987;20496.718; 0.42726
 362.79; 7915.331;  302.910;20634.303; 0.42664
 363.38; 8051.531;  301.613;20815.514; 0.42275
 363.98; 8040.744;  289.171;20943.715; 0.42563
 364.57; 8122.179;  277.744;21176.149; 0.42555
 365.16; 8196.845;  288.573;21351.502; 0.42544
 365.76; 8291.956;  293.720;21537.287; 0.42423
 366.35; 8365.559;  294.920;21731.542; 0.42425
 366.94; 8413.158;  286.459;21913.791; 0.42509
 367.53; 8484.829;  286.426;22067.466; 0.42435
 368.13; 8584.176;  291.994;22246.489; 0.42285
 368.72; 8569.643;  285.482;22413.295; 0.42669
 369.31; 8649.373;  292.281;22597.374; 0.42635
 369.91; 8596.201;  283.382;22746.877; 0.43173
 370.50; 8707.739;  291.699;22820.059; 0.42762
 371.09; 8745.943;  278.017;22946.909; 0.42765
 371.68; 8860.029;  286.967;23106.324; 0.42517
 372.28; 8899.948;  294.984;23340.584; 0.42784
 372.87; 8931.529;  297.367;23443.502; 0.42826
 373.46; 8960.962;  297.723;23614.255; 0.42998
 374.05; 9057.208;  287.889;23758.158; 0.42755
 374.65; 9185.210;  290.440;23950.173; 0.42488
 375.24; 9294.051;  272.918;24146.349; 0.42265
 375.83; 9380.066;  275.848;24331.370; 0.42197
 376.42; 9426.241;  273.516;24515.563; 0.42302
 377.02; 9498.512;  293.907;24527.502; 0.42041
 377.61; 9533.683;  288.112;24762.668; 0.42278
 378.20; 9588.811;  297.747;24944.118; 0.42369
 378.79; 9699.914;  297.015;25086.217; 0.42100
 379.38; 9790.148;  282.191;25204.109; 0.41849
 379.98; 9915.185;  267.243;25344.469; 0.41484
 380.57;10008.777;  272.112;25606.751; 0.41530
 381.16;10096.139;  291.609;25727.129; 0.41401
 381.75;10106.828;  289.589;25767.151; 0.41417
 382.35;10124.277;  283.703;25937.612; 0.41613
 382.94;10185.032;  271.231;26182.039; 0.41724
 383.53;10287.423;  279.541;26558.760; 0.41927
 384.12;10403.302;  269.432;26865.627; 0.41904
 384.71;10565.032;  284.069;27028.687; 0.41520
 385.31;10703.551;  287.699;27353.893; 0.41473
 385.90;10825.090;  299.731;27598.110; 0.41390
 386.49;10925.649;  283.306;27919.987; 0.41445
 387.08;11073.273;  296.763;28085.602; 0.41139
 387.67;11169.932;  302.047;28384.267; 0.41229
 388.26;11305.748;  312.463;28670.094; 0.41154
 388.86;11468.756;  297.866;29041.131; 0.41045
 389.45;11637.912;  285.685;29324.329; 0.40790
 390.04;11792.743;  279.860;29566.863; 0.40549
 390.63;11874.856;  284.795;29878.048; 0.40711
 391.22;12010.204;  294.422;30097.179; 0.40549
 391.81;12115.003;  303.408;30368.117; 0.40575
 392.41;12274.689;  324.211;30517.642; 0.40253
 393.00;12434.785;  349.022;30747.606; 0.40058
 393.59;12542.501;  379.676;31111.212; 0.40255
 394.18;12706.226;  399.780;31505.223; 0.40270
 394.77;12777.253;  433.703;31930.599; 0.40683
 395.36;12992.950;  473.557;32244.356; 0.40444
 395.95;13125.194;  524.323;32561.017; 0.40525
 396.55;13399.191;  566.236;32856.406; 0.40074
 397.14;13527.824;  594.577;33298.717; 0.40290
 397.73;13745.465;  601.786;33627.642; 0.40014
 398.32;13893.714;  612.294;34204.404; 0.40299
 398.91;14169.254;  621.039;34614.988; 0.39952
 399.50;14382.742;  632.059;35200.379; 0.40035
 400.09;14634.548;  605.452;35675.306; 0.39790
 400.68;14866.300;  582.293;36366.134; 0.39884
 401.27;15186.430;  548.561;37014.694; 0.39641
 401.87;15509.593;  525.771;37604.957; 0.39351
 402.46;15844.728;  501.053;38119.893; 0.38948
 403.05;16117.203;  484.389;38675.942; 0.38793
 403.64;16407.068;  490.521;39240.769; 0.38643
 404.23;16648.411;  484.797;39841.080; 0.38648
 404.82;16885.036;  502.588;40438.695; 0.38699
 405.41;17153.844;  491.629;41140.816; 0.38732
 406.00;17451.392;  497.890;41752.976; 0.38622
 406.59;17723.297;  479.966;42383.807; 0.38563
 407.18;17961.930;  482.149;42943.385; 0.38546
 407.77;18096.253;  466.520;43500.038; 0.38756
 408.37;18295.870;  484.641;43973.019; 0.38768
 408.96;18493.379;  491.806;44465.898; 0.38789
 409.55;18845.437;  504.476;44970.283; 0.38460
 410.14;19150.981;  481.626;45459.452; 0.38187
 410.73;19410.338;  490.299;45905.805; 0.38028
 411.32;19575.615;  492.855;46441.730; 0.38163
 411.91;19857.142;  505.687;47060.216; 0.38125
 412.50;20030.583;  480.732;47624.639; 0.38228
 413.09;20290.049;  484.505;48110.411; 0.38106
 413.68;20323.913;  482.467;48573.257; 0.38449
 414.27;20510.907;  487.472;48936.919; 0.38375
 414.86;20647.638;  462.470;49236.309; 0.38315
 415.45;20804.765;  452.555;49687.411; 0.38366
 416.04;21028.111;  462.743;50083.734; 0.38253
 416.63;21236.320;  468.551;50542.275; 0.38222
 417.22;21361.735;  461.867;50754.683; 0.38136
 417.81;21441.541;  462.159;51068.477; 0.38241
 418.40;21525.747;  476.694;51393.675; 0.38363
 418.99;21766.273;  477.832;51737.830; 0.38163
 419.58;21924.526;  462.218;51969.382; 0.38019
 420.17;22057.213;  452.952;52248.392; 0.37975
 420.76;22051.002;  458.593;52499.836; 0.38205
 421.35;22181.934;  472.988;53005.769; 0.38379
 421.94;22156.003;  474.287;53203.501; 0.38596
 422.53;22349.482;  469.601;53402.299; 0.38368
 423.12;22328.691;  471.552;53493.823; 0.38487
 423.71;22482.749;  463.366;53670.857; 0.38317
 424.30;22424.095;  471.573;53819.883; 0.38564
 424.89;22380.898;  477.611;53888.037; 0.38712
 425.48;22330.579;  477.854;53974.356; 0.38882
 426.07;22363.284;  465.438;53940.695; 0.38775
 426.66;22401.115;  460.097;54040.507; 0.38775
 427.25;22331.393;  453.014;53995.096; 0.38868
 427.84;22148.692;  450.549;53912.043; 0.39162
 428.43;22057.095;  452.848;53711.442; 0.39185
 429.02;22036.209;  457.772;53797.552; 0.39303
 429.61;21922.453;  448.720;53826.107; 0.39545
 430.20;21856.469;  425.820;53758.443; 0.39596
 430.79;21619.270;  437.001;53531.580; 0.39908
 431.38;21589.246;  442.471;53315.543; 0.39799
 431.97;21361.822;  451.391;53001.434; 0.40021
 432.55;21295.065;  445.807;52690.011; 0.39895
 433.14;21119.466;  441.412;52704.411; 0.40268
 433.73;20956.802;  432.971;52655.054; 0.40560
 434.32;20800.369;  424.624;52606.263; 0.40840
 434.91;20639.178;  423.161;52233.737; 0.40872
 435.50;20508.315;  418.064;51971.869; 0.40928
 436.09;20353.100;  418.432;51687.970; 0.41025
 436.68;20196.116;  422.559;51624.303; 0.41320
 437.27;20073.952;  439.214;51661.122; 0.41643
 437.86;19771.743;  433.576;51508.561; 0.42179
 438.45;19581.172;  436.794;51330.326; 0.42462
 439.04;19358.482;  419.148;51043.637; 0.42700
 439.62;19278.502;  412.025;51000.963; 0.42836
 440.21;19172.598;  413.441;50885.373; 0.42984
 440.80;19055.762;  430.263;51024.538; 0.43399
 441.39;18918.708;  449.560;51081.161; 0.43797
 441.98;18740.187;  447.874;51020.625; 0.44165
 442.57;18564.146;  436.530;50797.219; 0.44375
 443.16;18398.858;  425.660;50702.578; 0.44674
 443.75;18275.209;  431.481;50788.909; 0.45058
 444.33;18185.351;  435.018;50969.383; 0.45438
 444.92;18102.982;  440.355;50892.685; 0.45583
 445.51;18008.980;  417.614;50850.986; 0.45742
 446.10;17799.565;  410.612;51056.876; 0.46427
 446.69;17672.914;  404.712;51275.545; 0.46922
 447.28;17560.103;  420.929;51457.726; 0.47389
 447.87;17479.099;  412.657;51329.383; 0.47472
 448.45;17391.475;  413.036;51412.748; 0.47767
 449.04;17239.049;  390.874;51445.980; 0.48149
 449.63;17193.368;  386.972;51646.289; 0.48430
 450.22;17043.884;  381.501;51835.467; 0.48968
 450.81;16936.302;  386.090;52100.884; 0.49481
 451.40;16779.223;  391.666;52058.120; 0.49869
 451.98;16660.191;  398.229;52052.065; 0.50193
 452.57;16575.265;  403.856;52211.469; 0.50565
 453.16;16472.819;  401.626;52273.023; 0.50888
 453.75;16376.843;  391.994;52359.708; 0.51203
 454.34;16275.831;  388.814;52215.013; 0.51351
 454.93;16165.197;  395.232;52494.699; 0.51900
 455.51;16067.726;  391.805;52615.216; 0.52263
 456.10;15905.634;  402.670;52907.445; 0.52978
 456.69;15817.907;  396.116;53041.712; 0.53323
 457.28;15715.399;  403.304;53288.203; 0.53830
 457.87;15665.537;  395.902;53216.666; 0.53898
 458.45;15600.591;  396.108;53304.691; 0.54155
 459.04;15544.967;  388.965;53401.373; 0.54379
 459.63;15420.752;  395.666;53676.141; 0.54975
 460.22;15248.416;  396.420;53639.128; 0.55448
 460.80;15051.428;  400.600;53692.823; 0.56080
 461.39;14987.494;  392.483;53895.895; 0.56418
 461.98;14995.739;  393.792;54364.115; 0.56774
 462.57;15069.263;  398.874;54782.941; 0.56903
 463.16;15096.279;  397.668;55197.607; 0.57150
 463.74;15091.884;  387.726;55673.212; 0.57517
 464.33;14982.774;  376.102;56213.777; 0.58238
 464.92;15034.721;  370.427;56547.398; 0.58330
 465.51;15063.706;  357.831;56911.710; 0.58497
 466.09;15162.579;  358.204;57352.888; 0.58544
 466.68;15079.152;  361.518;57898.436; 0.59211
 467.27;15084.689;  372.331;58292.638; 0.59515
 467.86;15062.452;  368.243;58560.733; 0.59772
 468.44;15096.979;  363.094;58919.922; 0.59926
 469.03;15031.211;  361.882;59322.152; 0.60415
 469.62;15050.116;  367.807;59788.037; 0.60714
 470.20;14950.431;  365.300;60231.337; 0.61327
 470.79;14988.290;  374.762;60677.863; 0.61558
 471.38;15014.262;  358.816;61146.166; 0.61781
 471.97;15138.498;  359.020;61564.389; 0.61713
 472.55;15139.793;  350.111;61933.679; 0.61951
 473.14;15108.388;  362.234;62406.602; 0.62402
 473.73;15084.345;  355.473;62971.535; 0.62852
 474.31;15049.612;  347.428;63489.444; 0.63294
 474.90;15070.093;  350.797;63899.238; 0.63522
 475.49;15133.097;  352.737;64160.914; 0.63519
 476.07;15190.827;  357.870;64473.326; 0.63574
 476.66;15265.354;  347.892;64752.829; 0.63522
 477.25;15252.548;  340.581;65000.332; 0.63710
 477.84;15267.081;  352.761;65155.193; 0.63799
 478.42;15243.840;  344.733;65155.945; 0.63849
 479.01;15217.564;  344.681;65156.001; 0.63926
 479.60;15186.079;  330.210;65156.511; 0.63985
 480.18;15093.508;  334.265;65158.257; 0.64267
 480.77;14962.410;  342.135;65159.480; 0.64674
 481.35;14931.636;  347.900;65159.373; 0.64778
 481.94;14909.449;  344.738;65159.188; 0.64837
 482.53;14890.191;  335.059;65159.923; 0.64873
 483.11;14810.318;  332.000;65160.709; 0.65105
 483.70;14798.005;  318.067;65161.719; 0.65110
 484.29;14754.292;  316.585;65163.324; 0.65239
 484.87;14719.855;  306.461;65164.542; 0.65320
 485.46;14616.917;  315.710;65164.272; 0.65653
 486.05;14654.551;  319.958;65162.920; 0.65548
 486.63;14579.882;  321.237;65162.258; 0.65777
 487.22;14566.539;  317.302;65162.909; 0.65809
 487.81;14469.013;  323.288;65164.368; 0.66123
 488.39;14379.787;  331.856;65164.474; 0.66418
 488.98;14258.373;  337.207;65163.733; 0.66808
 489.56;14131.777;  317.228;65164.794; 0.67156
 490.15;14026.369;  310.772;65166.371; 0.67473
 490.74;13823.463;  302.771;65167.454; 0.68101
 491.32;13637.469;  305.937;65168.774; 0.68712
 491.91;13494.101;  316.111;64974.057; 0.69077
 492.49;13323.687;  317.823;64712.314; 0.69471
 493.08;13174.498;  332.939;64167.133; 0.69644
 493.67;12915.582;  325.500;63724.219; 0.70205
 494.25;12777.550;  343.920;63105.848; 0.70310
 494.84;12612.462;  335.724;62474.087; 0.70428
 495.42;12483.467;  338.386;61959.759; 0.70533
 496.01;12330.028;  319.873;61399.648; 0.70635
 496.59;12155.166;  310.443;60754.114; 0.70783
 497.18;12070.201;  311.106;60078.479; 0.70609
 497.77;11896.702;  311.733;59331.632; 0.70710
 498.35;11762.874;  326.966;58841.796; 0.70900
 498.94;11675.291;  324.499;58030.218; 0.70619
 499.52;11553.598;  324.914;57567.186; 0.70739
 500.11;11427.692;  311.275;56906.600; 0.70682
 500.69;11267.335;  304.601;56449.246; 0.70939
 501.28;11193.466;  315.149;55764.708; 0.70734
 501.86;11109.893;  317.653;55155.772; 0.70597
 502.45;11001.839;  338.264;54632.693; 0.70685
 503.03;10896.465;  328.939;54106.656; 0.70663
 503.62;10900.884;  339.385;53665.090; 0.70321
 504.20;10789.767;  326.215;53123.968; 0.70294
 504.79;10717.289;  326.766;52666.148; 0.70219
 505.37;10655.002;  326.582;52358.543; 0.70224
 505.96;10673.552;  332.269;51859.105; 0.69746
 506.55;10775.293;  327.706;51491.158; 0.68994
 507.13;10823.222;  315.837;51254.709; 0.68555
 507.72;10957.583;  312.954;51138.387; 0.67895
 508.30;10990.483;  319.265;50944.634; 0.67615
 508.89;11060.998;  316.460;50626.145; 0.67046
 509.47;11084.582;  308.593;50383.056; 0.66716
 510.05;11252.065;  311.037;50305.214; 0.65986
 510.64;11438.385;  312.992;50205.541; 0.65172
 511.22;11629.992;  326.961;50242.492; 0.64504
 511.81;11746.018;  323.186;50282.527; 0.64084
 512.39;11937.768;  329.747;50266.280; 0.63366
 512.98;12069.940;  310.647;50213.110; 0.62774
 513.56;12252.132;  306.947;50200.284; 0.62085
 514.15;12387.701;  297.484;50225.841; 0.61591
 514.73;12581.531;  293.306;50310.339; 0.60963
 515.32;12766.570;  298.909;50412.714; 0.60417
 515.90;12983.330;  306.909;50529.464; 0.59790
 516.49;13277.476;  321.223;50576.262; 0.58870
 517.07;13595.360;  323.415;50501.804; 0.57758
 517.66;13789.182;  325.663;50468.951; 0.57105
 518.24;13955.673;  330.491;50581.443; 0.56680
 518.82;14095.344;  322.791;50433.118; 0.56091
 519.41;14343.812;  321.449;50483.238; 0.55355
 519.99;14652.535;  304.901;50520.942; 0.54406
 520.58;15075.447;  313.039;50964.514; 0.53543
 521.16;15311.782;  316.114;51139.212; 0.53010
 521.75;15587.389;  315.579;51354.849; 0.52401
 522.33;15894.722;  314.722;51552.832; 0.51703
 522.91;16262.361;  303.280;51724.449; 0.50813
 523.50;16611.673;  304.661;51708.091; 0.49862
 524.08;16836.110;  292.957;51816.521; 0.49339
 524.67;17172.756;  296.699;52029.160; 0.48649
 525.25;17429.904;  294.898;52244.306; 0.48170
 525.83;17743.277;  300.195;52281.679; 0.47423
 526.42;18027.923;  299.604;52255.985; 0.46697
 527.00;18337.922;  297.414;52315.968; 0.45991
 527.59;18547.022;  293.742;52194.390; 0.45383
 528.17;18861.096;  296.702;52169.461; 0.44626
 528.75;19170.086;  314.407;52237.781; 0.43992
 529.34;19449.842;  317.963;52410.206; 0.43502
 529.92;19712.999;  322.096;52599.701; 0.43072
 530.50;19974.391;  308.099;52577.086; 0.42452
 531.09;20231.228;  310.277;52580.588; 0.41895
 531.67;20465.038;  319.699;52493.409; 0.41328
 532.25;20663.255;  331.224;52474.618; 0.40902
 532.84;20970.730;  319.265;52286.406; 0.40078
 533.42;21164.782;  303.579;52069.121; 0.39470
 534.00;21289.939;  296.379;51800.283; 0.38975
 534.59;21361.344;  306.923;51692.027; 0.38749
 535.17;21470.285;  307.396;51484.292; 0.38350
 535.75;21634.359;  311.833;51399.345; 0.37948
 536.34;21842.990;  327.170;51106.314; 0.37293
 536.92;22024.354;  323.362;50970.357; 0.36807
 537.50;22165.368;  320.767;50555.361; 0.36166
 538.09;22273.285;  304.234;50224.272; 0.35646
 538.67;22320.035;  307.957;49849.711; 0.35231
 539.25;22414.891;  292.004;49517.578; 0.34735
 539.84;22519.091;  298.382;49195.084; 0.34252
 540.42;22584.778;  287.620;48747.408; 0.33713
 541.00;22722.647;  304.712;48328.615; 0.33086
 541.59;22772.837;  293.453;47996.146; 0.32676
 542.17;22878.010;  303.713;47681.974; 0.32196
 542.75;22964.465;  301.687;47449.085; 0.31814
 543.33;23054.140;  321.928;47035.436; 0.31280
 543.92;23144.164;  322.791;46647.473; 0.30747
 544.50;23152.697;  319.637;46212.001; 0.30318
 545.08;23213.107;  303.653;45900.067; 0.29892
 545.67;23139.901;  304.594;45544.519; 0.29692
 546.25;23123.313;  306.855;45243.598; 0.29435
 546.83;23141.941;  305.919;44881.223; 0.29047
 547.41;23350.015;  307.185;44485.963; 0.28268
 548.00;23598.800;  304.048;44073.416; 0.27391
 548.58;23627.736;  293.554;43651.340; 0.26907
 549.16;23704.702;  273.252;43462.973; 0.26558
 549.74;23718.069;  276.221;43125.006; 0.26195
 550.33;23823.097;  287.338;42789.017; 0.25668
 550.91;23888.886;  287.502;42328.145; 0.25073
 551.49;23827.457;  275.114;42084.067; 0.24924
 552.07;23942.401;  281.527;41894.675; 0.24520
 552.66;23977.654;  296.715;41696.915; 0.24260
 553.24;24159.209;  301.874;41407.799; 0.23628
 553.82;24285.478;  287.046;41262.389; 0.23234
 554.40;24487.073;  287.502;41018.645; 0.22612
 554.98;24625.611;  286.839;40927.197; 0.22266
 555.57;24660.845;  295.511;40724.442; 0.21992
 556.15;24694.931;  295.794;40729.857; 0.21937
 556.73;24851.273;  289.872;40584.856; 0.21500
 557.31;25052.860;  280.087;40487.094; 0.21033
 557.89;25243.670;  267.680;40402.230; 0.20600
 558.48;25428.590;  270.725;40389.487; 0.20267
 559.06;25673.744;  269.279;40492.969; 0.19957
 559.64;25884.132;  288.172;40421.363; 0.19533
 560.22;26022.258;  308.276;40298.501; 0.19178
 560.80;26154.866;  311.749;40155.433; 0.18801
 561.39;26330.588;  300.174;40123.139; 0.18465
 561.97;26505.925;  304.256;40118.465; 0.18171
 562.55;26631.718;  305.864;40159.584; 0.18009
 563.13;26841.617;  307.652;40244.814; 0.17758
 563.71;27071.126;  295.320;40343.674; 0.17484
 564.29;27270.611;  296.315;40286.513; 0.17100
 564.88;27459.810;  280.495;40218.374; 0.16715
 565.46;27535.557;  277.260;40267.767; 0.16646
 566.04;27807.698;  269.464;40338.574; 0.16287
 566.62;27948.904;  292.162;40520.457; 0.16273
 567.20;28159.790;  292.265;40647.678; 0.16080
 567.78;28327.196;  300.170;40851.754; 0.16043
 568.36;28625.863;  300.837;41002.754; 0.15744
 568.94;28978.640;  296.460;41004.189; 0.15206
 569.53;29151.646;  295.816;41099.192; 0.15046
 570.11;29320.614;  283.902;41113.488; 0.14803
 570.69;29599.713;  278.869;41248.245; 0.14528
 571.27;29797.730;  279.854;41227.262; 0.14214
 571.85;29957.358;  279.584;41295.220; 0.14052
 572.43;30081.703;  299.078;41479.213; 0.14072
 573.01;30290.362;  288.199;41566.526; 0.13857
 573.59;30499.832;  284.931;41522.011; 0.13507
 574.17;30610.779;  270.419;41423.650; 0.13238
 574.76;30894.541;  278.826;41529.098; 0.12948
 575.34;31060.439;  274.920;41725.997; 0.12919
 575.92;31221.299;  271.771;41808.186; 0.12777
 576.50;31264.280;  265.398;41828.507; 0.12736
 577.08;31352.490;  261.206;41866.048; 0.12651
 577.66;31485.481;  250.776;41875.013; 0.12471
 578.24;31663.305;  252.747;41879.155; 0.12229
 578.82;31906.394;  257.942;41897.583; 0.11915
 579.40;32090.687;  266.978;41903.210; 0.11672
 579.98;32228.772;  273.567;41841.961; 0.11422
 580.56;32358.127;  281.852;41853.319; 0.11261
 581.14;32510.308;  291.659;41917.834; 0.11126
 581.72;32714.388;  280.280;42082.244; 0.11019
 582.30;32821.290;  273.151;42074.467; 0.10866
 582.88;32926.109;  274.650;42152.288; 0.10808
 583.46;32961.297;  282.363;42189.821; 0.10802
 584.04;33223.920;  282.956;42171.457; 0.10436
 584.62;33412.610;  265.125;42197.830; 0.10210
 585.21;33659.551;  267.265;42241.428; 0.09934
 585.79;33667.141;  273.754;42392.009; 0.10081
 586.37;33841.441;  277.118;42415.309; 0.09880
 586.95;33988.280;  275.522;42455.787; 0.09732
 587.53;34223.331;  269.979;42469.819; 0.09443
 588.11;34346.429;  278.442;42585.262; 0.09406
 588.69;34484.351;  282.733;42557.865; 0.09204
 589.27;34631.960;  283.424;42506.477; 0.08964
 589.85;34704.093;  276.026;42443.602; 0.08807
 590.43;34796.433;  271.715;42599.939; 0.08850
 591.01;34809.007;  278.076;42722.853; 0.08962
 591.59;35021.096;  288.299;42936.945; 0.08917
 592.16;35029.142;  287.924;42891.657; 0.08860
 592.74;35250.540;  291.617;42886.045; 0.08579
 593.32;35341.795;  293.193;42739.948; 0.08317
 593.90;35647.153;  297.895;42708.966; 0.07910
 594.48;35676.885;  288.777;42603.037; 0.07763
 595.06;35620.311;  285.245;42684.475; 0.07915
 595.64;35546.405;  272.769;42709.242; 0.08029
 596.22;35653.304;  276.890;42757.472; 0.07948
 596.80;35725.126;  268.138;42505.619; 0.07600
 597.38;35857.071;  264.245;42457.558; 0.07388
 597.96;35791.754;  262.869;42299.911; 0.07305
 598.54;35771.913;  268.057;42320.734; 0.07352
 599.12;35662.593;  272.769;42174.074; 0.07335
 599.70;35581.138;  272.156;42133.628; 0.07393
 600.28;35520.051;  269.178;41999.881; 0.07329
 600.86;35529.083;  273.568;41898.236; 0.07212
 601.44;35668.167;  279.130;41816.989; 0.06958
 602.02;35683.161;  273.135;41601.984; 0.06713
 602.59;35642.350;  269.019;41487.164; 0.06641
 603.17;35491.166;  254.435;41427.991; 0.06762
 603.75;35454.861;  264.600;41407.036; 0.06787
 604.33;35483.193;  268.544;41269.041; 0.06607
 604.91;35446.796;  272.574;41056.648; 0.06427
 605.49;35403.222;  271.546;40985.067; 0.06404
 606.07;35210.387;  254.900;40828.877; 0.06473
 606.65;35164.545;  260.422;40696.701; 0.06389
 607.23;35101.973;  264.441;40448.820; 0.06201
 607.80;35051.191;  277.156;40221.379; 0.06020
 608.38;34920.966;  277.256;40025.464; 0.05969
 608.96;34810.178;  285.786;39921.000; 0.05996
 609.54;34643.217;  288.246;39743.725; 0.06012
 610.12;34502.534;  283.928;39528.375; 0.05952
 610.70;34227.785;  273.259;39095.265; 0.05818
 611.28;34142.251;  259.195;38813.390; 0.05609
 611.85;33962.753;  265.841;38433.913; 0.05411
 612.43;33774.455;  260.695;38304.961; 0.05507
 613.01;33617.327;  263.202;38019.161; 0.05384
 613.59;33445.284;  249.299;37795.112; 0.05348
 614.17;33290.913;  240.914;37668.085; 0.05402
 614.75;32997.365;  222.778;37521.205; 0.05615
 615.32;32777.277;  209.277;37291.775; 0.05638
 615.90;32640.399;  219.080;36866.572; 0.05321
 616.48;32465.476;  232.952;36658.988; 0.05312
 617.06;32239.980;  255.157;36308.488; 0.05200
 617.64;31894.968;  246.140;36072.812; 0.05385
 618.22;31698.006;  241.049;35666.522; 0.05160
 618.79;31520.104;  228.178;35515.632; 0.05219
 619.37;31421.820;  227.104;35180.352; 0.04941
 619.95;31096.760;  231.387;34894.600; 0.05040
 620.53;30842.994;  218.869;34491.494; 0.04888
 621.11;30631.116;  206.529;34156.975; 0.04762
 621.68;30499.838;  201.116;33920.700; 0.04646
 622.26;30395.928;  202.843;33803.106; 0.04644
 622.84;30128.200;  212.594;33643.042; 0.04824
 623.42;29911.894;  214.208;33340.072; 0.04744
 623.99;29715.313;  232.130;33128.823; 0.04758
 624.57;29656.695;  239.695;32874.211; 0.04508
 625.15;29538.094;  249.244;32723.283; 0.04483
 625.73;29196.591;  235.066;32483.448; 0.04669
 626.30;28937.938;  228.444;32290.122; 0.04796
 626.88;28731.754;  228.031;32032.596; 0.04759
 627.46;28598.597;  230.061;31766.787; 0.04598
 628.04;28471.685;  242.419;31549.234; 0.04494
 628.61;28269.222;  241.899;31249.103; 0.04388
 629.19;28062.548;  244.829;31015.066; 0.04381
 629.77;27815.244;  231.831;30736.758; 0.04372
 630.35;27596.333;  234.217;30562.869; 0.04470
 630.92;27398.042;  232.092;30375.921; 0.04517
 631.50;27259.252;  220.757;30199.145; 0.04483
 632.08;27117.448;  206.521;29949.680; 0.04346
 632.66;26939.569;  196.801;29744.460; 0.04332
 633.23;26700.533;  216.776;29426.430; 0.04255
 633.81;26497.795;  225.566;29138.020; 0.04159
 634.39;26466.213;  220.298;28844.754; 0.03768
 634.96;26291.920;  221.956;28624.791; 0.03722
 635.54;26123.004;  216.680;28606.896; 0.03976
 636.12;25806.058;  214.735;28334.976; 0.04093
 636.69;25645.349;  204.526;28222.591; 0.04191
 637.27;25478.275;  199.403;27913.834; 0.03995
 637.85;25400.841;  217.219;27696.062; 0.03788
 638.42;25254.768;  206.286;27392.989; 0.03558
 639.00;25050.554;  223.367;27259.457; 0.03702
 639.58;24753.031;  209.789;26981.612; 0.03775
 640.15;24534.898;  222.891;26790.445; 0.03853
 640.73;24327.346;  204.119;26492.226; 0.03732
 641.31;24241.795;  216.013;26471.006; 0.03853
 641.88;24095.243;  210.908;26285.787; 0.03811
 642.46;23994.025;  226.803;26132.901; 0.03742
 643.04;23864.140;  214.697;25934.349; 0.03644
 643.61;23808.589;  223.925;25817.463; 0.03550
 644.19;23699.704;  209.153;25659.577; 0.03480
 644.77;23507.153;  224.048;25468.358; 0.03512
 645.34;23264.601;  211.943;25293.805; 0.03664
 645.92;23082.383;  214.504;25070.586; 0.03621
 646.49;22997.832;  218.399;24938.033; 0.03550
 647.07;22897.947;  220.293;24745.814; 0.03402
 647.65;22787.062;  224.188;24564.928; 0.03294
 648.22;22549.177;  218.082;24391.042; 0.03442
 648.80;22512.959;  227.310;24368.156; 0.03473
 649.37;22432.075;  227.872;24339.937; 0.03580
 649.95;22431.523;  227.433;24242.051; 0.03404
 650.53;22281.972;  209.328;24121.165; 0.03476
 651.10;22139.754;  214.222;24054.279; 0.03636
 651.68;22105.869;  211.450;24020.060; 0.03640
 652.25;22066.317;  221.012;23899.174; 0.03499
 652.83;22032.099;  211.573;23700.955; 0.03201
 653.41;21949.881;  208.468;23524.069; 0.03036
 653.98;21861.330;  212.362;23340.850; 0.02871
 654.56;21801.778;  211.590;23307.630; 0.02928
 655.13;21694.893;  208.818;23285.744; 0.03102
 655.71;21582.009;  207.379;23284.525; 0.03328
 656.28;21464.457;  194.941;23185.639; 0.03379
 656.86;21337.572;  188.169;22962.753; 0.03215
 657.43;21319.021;  190.397;22872.868; 0.03082
 658.01;21339.469;  212.958;22793.315; 0.02890
 658.58;21405.585;  207.519;22876.096; 0.02913
 659.16;21355.033;  211.747;22798.876; 0.02869
 659.74;21288.482;  196.309;22777.324; 0.02962
 660.31;21188.597;  204.203;22714.438; 0.03048
 660.89;21162.046;  198.098;22687.885; 0.03051
 661.46;21097.827;  206.659;22545.999; 0.02911
 662.04;21105.943;  208.554;22516.780; 0.02837
 662.61;21086.058;  207.448;22500.894; 0.02848
 663.19;21086.840;  206.676;22626.342; 0.03090
 663.76;21170.288;  209.571;22600.456; 0.02867
 664.34;21179.737;  211.132;22526.237; 0.02703
 664.91;21213.185;  214.027;22413.684; 0.02414
 665.49;21192.634;  216.922;22441.798; 0.02512
 666.06;21173.749;  213.150;22513.246; 0.02690
 666.64;21191.531;  212.044;22555.693; 0.02736
 667.21;21152.313;  216.606;22500.140; 0.02710
 667.79;21097.761;  204.167;22400.588; 0.02627
 668.36;21194.210;  201.395;22402.702; 0.02431
 668.93;21167.659;  202.290;22421.149; 0.02522
 669.51;21129.774;  198.184;22426.263; 0.02610
 670.08;20958.222;  192.412;22387.044; 0.02890
 670.66;20927.671;  189.307;22273.825; 0.02731
 671.23;21067.453;  213.201;22361.606; 0.02615
 671.81;21058.235;  219.763;22403.720; 0.02717
 672.38;21089.350;  224.324;22501.167; 0.02843
 672.96;21076.798;  213.552;22510.281; 0.02886
 673.53;21184.914;  213.113;22482.395; 0.02607
 674.10;21180.695;  213.008;22524.843; 0.02698
 674.68;21210.144;  228.236;22505.290; 0.02601
 675.25;21184.926;  221.131;22417.404; 0.02481
 675.83;21178.041;  215.692;22370.185; 0.02402
 676.40;21158.823;  203.253;22300.299; 0.02303
 676.98;21177.605;  209.148;22323.413; 0.02311
 677.55;21239.720;  210.043;22281.527; 0.02100
 678.12;21147.835;  223.937;22260.975; 0.02251
 678.70;21080.951;  221.832;22236.089; 0.02341
 679.27;20987.399;  229.060;22163.870; 0.02394
 679.85;20903.514;  216.621;22124.984; 0.02491
 680.42;20902.630;  216.516;22133.431; 0.02510
 680.99;20755.411;  192.744;22099.212; 0.02749
 681.57;20830.860;  198.305;22028.659; 0.02451
 682.14;20775.642;  205.866;21848.773; 0.02209
 682.71;20815.090;  210.761;21795.554; 0.02019
 683.29;20715.206;  200.656;21706.668; 0.02050
 683.86;20536.321;  185.884;21546.116; 0.02103
 684.43;20403.436;  198.112;21362.230; 0.02013
 685.01;20280.551;  197.006;21197.011; 0.01938
 685.58;20351.666;  206.234;21272.458; 0.01941
 686.16;20409.115;  206.462;21269.239; 0.01811
 686.73;20447.897;  215.023;21397.686; 0.01992
 687.30;20280.679;  207.585;21388.467; 0.02333
 687.88;20232.794;  217.479;21321.914; 0.02301
 688.45;20077.576;  210.707;21118.362; 0.02218
 689.02;20126.358;  213.602;21022.142; 0.01911
 689.60;19974.473;  190.497;20889.257; 0.01963
 690.17;20013.588;  199.391;20926.704; 0.01957
 690.74;19899.703;  189.619;20805.485; 0.01951
 691.31;19892.819;  204.181;20824.932; 0.02009
 691.89;19706.601;  191.742;20754.713; 0.02272
 692.46;19701.382;  212.637;20700.494; 0.02171
 693.03;19672.164;  229.198;20611.941; 0.02050
 693.61;19693.279;  234.759;20426.722; 0.01607
 694.18;19683.395;  237.320;20424.503; 0.01624
 694.75;19549.843;  206.882;20414.950; 0.01900
 695.32;19441.958;  208.110;20458.064; 0.02236
 695.90;19270.740;  203.004;20312.512; 0.02310
 696.47;19151.189;  203.899;20210.626; 0.02363
 697.04;19150.304;  214.460;20060.073; 0.02038
 697.62;19150.086;  213.355;20039.187; 0.01993
 698.19;19254.201;  229.250;19951.301; 0.01563
 698.76;19194.650;  211.144;19960.082; 0.01717
 699.33;19156.432;  210.706;19883.196; 0.01635
 699.91;19108.214;  196.600;19795.977; 0.01551
 700.48;19036.329;  206.162;19674.091; 0.01447
 701.05;18851.777;  208.056;19645.538; 0.01811
 701.62;18731.893;  232.951;19536.652; 0.01849
 702.20;18664.008;  235.179;19463.767; 0.01845
 702.77;18635.123;  232.073;19314.881; 0.01575
 703.34;18496.571;  217.301;19303.995; 0.01877
 703.91;18431.020;  214.196;19161.775; 0.01708
 704.48;18358.469;  220.091;19054.223; 0.01635
 705.06;18377.917;  212.652;18964.004; 0.01379
 705.63;18243.699;  221.213;18940.118; 0.01647
 706.20;18201.148;  214.441;18934.565; 0.01736
 706.77;18127.263;  221.336;18864.679; 0.01753
 707.34;18137.045;  215.564;18821.793; 0.01628
 707.92;18046.160;  205.792;18710.907; 0.01589
 708.49;17927.608;  193.353;18575.022; 0.01557
 709.06;17949.057;  193.248;18466.136; 0.01247
 709.63;17844.172;  194.476;18431.916; 0.01423
 710.20;17795.287;  191.037;18446.697; 0.01578
 710.77;17657.736;  187.932;18338.145; 0.01659
 711.35;17698.518;  185.826;18305.592; 0.01480
 711.92;17703.966;  205.721;18271.706; 0.01387
 712.49;17697.748;  207.616;18372.487; 0.01644
 713.06;17714.197;  215.844;18405.934; 0.01684
 713.63;17771.312;  209.405;18498.382; 0.01762
 714.20;17867.094;  212.300;18556.829; 0.01664
 714.78;17845.876;  209.528;18487.277; 0.01551
 715.35;17846.991;  205.756;18407.724; 0.01359
 715.92;17851.106;  207.317;18351.838; 0.01215
 716.49;17874.888;  222.545;18343.285; 0.01137
 717.06;17774.003;  226.106;18273.400; 0.01219
 717.63;17700.119;  217.334;18198.847; 0.01222
 718.20;17673.567;  210.895;18175.294; 0.01230
 718.77;17615.682;  224.790;18170.075; 0.01363
 719.35;17447.798;  226.351;18153.189; 0.01743
 719.92;17391.246;  211.913;18038.303; 0.01606
 720.49;17390.361;  197.474;17879.084; 0.01217
 721.06;17415.143;  177.369;17774.532; 0.00896
 721.63;17397.592;  190.930;17799.979; 0.01004
 722.20;17369.707;  195.825;17861.426; 0.01226
 722.77;17354.155;  203.386;17825.540; 0.01178
 723.34;17295.937;  196.947;17821.321; 0.01314
 723.91;17212.386;  205.509;17813.102; 0.01508
 724.48;17240.168;  222.070;17777.883; 0.01351
 725.05;17206.950;  212.964;17617.997; 0.01038
 725.62;17175.398;  195.192;17490.778; 0.00799
 726.20;17011.847;  186.754;17461.892; 0.01146
 726.77;17006.629;  192.982;17446.339; 0.01121
 727.34;17028.411;  199.210;17412.787; 0.00981
 727.91;17103.859;  209.104;17361.567; 0.00657
 728.48;17024.974;  214.999;17354.015; 0.00842
 729.05;17079.423;  215.560;17353.795; 0.00701
 729.62;17107.538;  192.788;17320.910; 0.00544
 730.19;17052.320;  185.683;17297.024; 0.00626
 730.76;16895.435;  188.578;17324.138; 0.01100
 731.33;16801.884;  211.472;17306.252; 0.01301
 731.90;16833.332;  215.034;17274.033; 0.01137
 732.47;16870.114;  206.261;17242.147; 0.00959
 733.04;16784.563;  191.156;17245.594; 0.01190
 733.61;16724.011;  168.051;17256.042; 0.01374
 734.18;16594.460;  173.945;17191.156; 0.01550
 734.75;16540.908;  184.507;17077.270; 0.01401
 735.32;16491.357;  211.401;16955.384; 0.01221
 735.89;16472.805;  203.963;16851.831; 0.01000
 736.46;16432.587;  212.191;16734.945; 0.00802
 737.03;16323.369;  203.085;16674.393; 0.00936
 737.60;16280.484;  203.647;16580.840; 0.00804
 738.17;16151.933;  173.208;16558.621; 0.01092
 738.74;16162.715;  184.103;16523.735; 0.00970
 739.31;16081.497;  185.331;16430.849; 0.00944
 739.88;15980.945;  195.225;16300.630; 0.00871
 740.45;15869.394;  176.120;16234.411; 0.00999
 741.02;15824.509;  174.348;16293.858; 0.01283
 741.59;15936.624;  171.909;16337.305; 0.01090
 742.15;15932.073;  177.804;16325.753; 0.01072
 742.72;15999.188;  185.365;16376.867; 0.01025
 743.29;15999.303;  187.593;16351.648; 0.00957
 743.86;15987.752;  195.154;16298.095; 0.00845
 744.43;15970.534;  197.049;16220.543; 0.00683
 745.00;15950.316;  201.277;16240.323; 0.00792
 745.57;15968.431;  209.172;16261.771; 0.00801
 746.14;15924.546;  201.733;16198.552; 0.00750
 746.71;15890.328;  208.294;16179.666; 0.00794
 747.28;15828.443;  196.522;16170.446; 0.00940
 747.85;15846.225;  172.417;16124.227; 0.00764
 748.42;15832.007;  173.645;16103.675; 0.00747
 748.98;15908.789;  177.206;16075.455; 0.00458
 749.55;15851.904;  197.767;16011.569; 0.00441
 750.12;15820.353;  197.662;16015.683; 0.00540
 750.69;15744.134;  204.890;15955.131; 0.00586
 751.26;15636.250;  216.118;15910.245; 0.00765
 751.83;15633.365;  206.013;15821.026; 0.00525
 752.40;15576.147;  204.907;15769.807; 0.00544
 752.97;15619.929;  192.802;15780.587; 0.00450
 753.53;15597.710;  195.697;15773.035; 0.00492
 754.10;15562.492;  187.925;15706.815; 0.00406
 754.67;15534.274;  185.486;15666.263; 0.00372
 755.24;15461.723;  192.714;15616.044; 0.00437
 755.81;15432.505;  200.608;15583.491; 0.00428
 756.38;15368.287;  223.503;15510.272; 0.00405
 756.94;15319.402;  215.064;15482.386; 0.00466
 757.51;15207.850;  204.292;15502.833; 0.00846
 758.08;15177.632;  196.520;15545.281; 0.01053
 758.65;15108.414;  213.748;15443.728; 0.00967
 759.22;15019.196;  220.643;15351.176; 0.00963
 759.79;14876.645;  205.538;15180.623; 0.00891
 760.35;14757.093;  191.432;15130.404; 0.01099
 760.92;14679.208;  201.994;14987.518; 0.00915
 761.49;14508.657;  208.555;14849.965; 0.01024
 762.06;14445.439;  211.783;14641.079; 0.00593
 762.63;14352.887;  201.011;14500.527; 0.00451
 763.19;14310.002;  203.239;14469.641; 0.00489
 763.76;14153.118;  215.133;14423.422; 0.00834
 764.33;14042.566;  219.695;14294.202; 0.00783
 764.90;13962.348;  218.589;14107.650; 0.00457
 765.46;13810.130;  197.817;13914.097; 0.00330
 766.03;13640.912;  196.045;13749.878; 0.00351
 766.60;13403.027;  197.940;13624.992; 0.00724
 767.17;13261.142;  205.501;13465.773; 0.00675
 767.73;13101.591;  207.063;13413.220; 0.01037
 768.30;12954.373;  206.624;13205.001; 0.00846
 768.87;12852.488;  215.185;13045.782; 0.00659
 769.44;12720.937;  213.413;12836.229; 0.00398
 770.00;12548.052;  215.975;12686.677; 0.00485
 770.57;12362.834;  216.536;12525.791; 0.00579
 771.14;12137.949;  213.430;12350.238; 0.00766
 771.71;11963.064;  198.325;12122.686; 0.00585
 772.27;11668.846;  206.220;11935.800; 0.01000
 772.84;11557.294;  209.448;11715.914; 0.00603
 773.41;11371.410;  213.676;11595.695; 0.00864
 773.97;11272.858;  205.904;11440.809; 0.00654
 774.54;11045.307;  213.798;11314.923; 0.01068
 775.11;10986.755;  232.360;11227.370; 0.00961
 775.67;10835.871;  228.588;11074.818; 0.00967
 776.24;10778.986;  222.482;10902.265; 0.00504
 776.81;10630.434;  220.377;10665.712; 0.00147
 777.38;10492.550;  208.272;10484.160;-0.00035
 777.94;10367.331;  214.166;10350.941;-0.00070
 778.51;10196.780;  199.728;10214.721; 0.00078
 779.08;10105.229;  210.622;10137.835; 0.00143
 779.64; 9975.677;  201.517;10058.283; 0.00365
 780.21; 9880.792;  202.745; 9970.064; 0.00399
 780.78; 9824.908;  211.639; 9870.178; 0.00204
 781.34; 9691.689;  212.534; 9787.625; 0.00437
 781.91; 9600.471;  225.762; 9703.406; 0.00474
 782.47; 9502.920;  227.990; 9633.520; 0.00607
 783.04; 9441.035;  238.551; 9482.634; 0.00196
 783.61; 9369.817;  245.779; 9385.415; 0.00074
 784.17; 9271.265;  246.674; 9320.196; 0.00235
 784.74; 9264.381;  236.569; 9240.310;-0.00116
 785.31; 9190.496;  244.797; 9256.090; 0.00317
 785.87; 9165.611;  248.691; 9137.538;-0.00137
 786.44; 9086.060;  252.252; 9126.319; 0.00197
 787.00; 9066.842;  239.480; 9065.766;-0.00005
 787.57; 8976.957;  222.375; 9005.880; 0.00143
 788.14; 8935.405;  242.936; 8941.661; 0.00031
 788.70; 8862.854;  252.831; 8828.442;-0.00174
 789.27; 8866.302;  261.392; 8880.222; 0.00070
 789.83; 8798.084;  247.620; 8836.003; 0.00192
 790.40; 8811.200;  230.182; 8838.117; 0.00136
 790.96; 8753.315;  235.076; 8799.898; 0.00237
 791.53; 8741.763;  229.304; 8766.679; 0.00127
 792.10; 8719.545;  224.866; 8777.126; 0.00293
 792.66; 8704.660;  219.094; 8720.574; 0.00081
 793.23; 8665.109;  214.988; 8733.688; 0.00351
 793.79; 8578.224;  216.216; 8675.468; 0.00502
 794.36; 8576.673;  210.777; 8660.249; 0.00432
 794.92; 8529.788;  219.339; 8606.363; 0.00398
 795.49; 8539.903;  232.233; 8532.811;-0.00037
 796.05; 8506.685;  243.461; 8505.258;-0.00007
 796.62; 8507.134;  248.023; 8527.372; 0.00106
 797.19; 8424.915;  237.917; 8507.820; 0.00438
 797.75; 8370.364;  226.145; 8453.600; 0.00442
 798.32; 8411.479;  218.373; 8393.714;-0.00094
 798.88; 8438.261;  222.601; 8383.829;-0.00289
 799.45; 8450.376;  224.829; 8436.276;-0.00075
 800.01; 8486.158;  220.391; 8517.723; 0.00166
 800.58; 8694.273;  215.952; 8677.504;-0.00086
 801.14; 8937.055;  222.513; 8916.952;-0.00100
 801.71; 9202.504;  218.074; 9117.399;-0.00413
 802.27; 9381.952;  206.969; 9310.180;-0.00341
 802.84; 9619.068;  188.864; 9480.294;-0.00644
 803.40; 9856.516;  179.758; 9723.075;-0.00603
 803.96;10156.631;  198.986;10006.189;-0.00661
 804.53;10462.080;  210.548;10273.303;-0.00807
 805.09;10751.862;  208.442;10576.417;-0.00729
 805.66;11075.310;  200.670;10926.198;-0.00600
 806.22;11368.759;  172.898;11264.978;-0.00404
 806.79;11786.874;  185.793;11622.426;-0.00620
 807.35;12176.323;  182.354;11886.873;-0.01061
 807.92;12558.105;  214.582;12161.654;-0.01418
 808.48;12783.220;  221.810;12436.768;-0.01215
 809.05;13074.002;  217.705;12708.882;-0.01251
 809.61;13333.784;  213.933;13054.330;-0.00935
 810.17;13619.232;  218.827;13355.110;-0.00865
 810.74;13900.681;  231.055;13671.891;-0.00733
 811.30;14176.462;  226.617;13899.672;-0.00870
 811.87;14500.578;  214.511;14212.453;-0.00885
 812.43;14728.026;  214.406;14571.233;-0.00472
 812.99;15093.475;  216.967;14881.014;-0.00625
 813.56;15452.257;  221.862;15191.462;-0.00750
 814.12;15945.372;  221.090;15523.909;-0.01180
 814.69;16376.820;  216.318;15866.356;-0.01394
 815.25;16620.602;  210.213;16143.804;-0.01281
 815.81;16779.384;  200.774;16302.251;-0.01268
 816.38;17040.166;  196.335;16642.699;-0.01037
 816.94;17351.281;  193.897;16882.479;-0.01203
 817.51;17687.730;  192.791;17283.594;-0.01015
 818.07;17899.178;  201.019;17504.374;-0.00980
 818.63;18108.627;  202.247;17804.155;-0.00745
 819.20;18353.076;  201.808;18033.936;-0.00770
 819.76;18571.191;  209.370;18216.050;-0.00848
 820.32;18869.639;  216.598;18394.831;-0.01120
 820.89;19057.421;  218.159;18583.278;-0.01107
 821.45;19190.870;  193.387;18775.726;-0.00960
 822.01;19289.652;  176.615;18965.173;-0.00744
 822.58;19358.767;  180.843;19065.620;-0.00669
 823.14;19402.882;  194.404;19233.068;-0.00386
 823.70;19496.997;  202.299;19352.182;-0.00327
 824.27;19553.112;  193.194;19462.963;-0.00203
 824.83;19648.561;  215.421;19467.743;-0.00406
 825.39;19633.676;  215.649;19374.524;-0.00584
 825.95;19583.125;  221.211;19316.972;-0.00601
 826.52;19433.573;  191.105;19274.752;-0.00360
 827.08;19263.689;  189.000;19152.200;-0.00255
 827.64;19056.804;  175.895;18949.314;-0.00248
 828.21;18792.586;  175.123;18660.095;-0.00310
 828.77;18524.701;  181.351;18397.542;-0.00302
 829.33;18224.816;  183.579;18029.323;-0.00473
 829.89;17909.265;  181.807;17638.104;-0.00669
 830.46;17561.380;  185.701;17297.218;-0.00665
 831.02;17217.828;  190.596;16895.332;-0.00830
 831.58;16831.944;  201.157;16540.779;-0.00767
 832.15;16321.392;  185.052;16128.893;-0.00521
 832.71;15779.841;  188.280;15811.341; 0.00088
 833.27;15315.956;  178.841;15353.455; 0.00107
 833.83;14898.071;  169.736;14940.569; 0.00125
 834.39;14417.186;  164.297;14394.016;-0.00071
 834.96;13925.968;  162.192;13925.464;-0.00002
 835.52;13532.750;  187.086;13474.578;-0.00190
 836.08;13214.865;  188.981;13047.025;-0.00563
 836.64;12846.647;  194.876;12619.473;-0.00787
 837.21;12404.762;  198.770;12148.920;-0.00920
 837.77;11971.211;  198.332;11759.367;-0.00789
 838.33;11567.326;  206.893;11447.148;-0.00462
 838.89;11121.108;  203.121;11001.596;-0.00478
 839.45;10670.890;  205.349;10589.710;-0.00338
 840.02;10248.005;  209.910;10134.490;-0.00494
 840.58; 9888.787;  201.805; 9836.938;-0.00233
 841.14; 9469.569;  224.699; 9457.052;-0.00059
 841.70; 9072.684;  220.594; 9049.833;-0.00112
 842.26; 8675.466;  218.155; 8613.280;-0.00321
 842.82; 8319.581;  209.050; 8233.061;-0.00466
 843.39; 7882.030;  200.278; 7802.175;-0.00454
 843.95; 7470.478;  213.839; 7446.956;-0.00141
 844.51; 7107.927;  213.734; 7076.737;-0.00197
 845.07; 6838.709;  223.295; 6751.184;-0.00578
 845.63; 6611.491;  228.523; 6447.965;-0.01127
 846.19; 6388.273;  213.418; 6205.745;-0.01303
 846.75; 6152.388;  212.646; 6042.860;-0.00808
 847.32; 5899.836;  191.874; 5828.307;-0.00548
 847.88; 5692.618;  198.435; 5647.088;-0.00361
 848.44; 5500.400;  182.996; 5418.202;-0.00677
 849.00; 5366.849;  188.224; 5206.649;-0.01365
 849.56; 5244.964;  183.119; 5035.763;-0.01833
 850.12; 5129.412;  176.680; 4913.211;-0.01938
 850.68; 4986.528;  181.908; 4877.325;-0.00998
 851.24; 4904.976;  184.136; 4806.439;-0.00916
 851.80; 4883.758;  199.364; 4790.220;-0.00876
 852.37; 4891.540;  196.592; 4731.334;-0.01508
 852.93; 4870.655;  204.820; 4729.448;-0.01335
 853.49; 4790.437;  212.715; 4650.895;-0.01344
 854.05; 4709.219;  223.943; 4597.676;-0.01094
 854.61; 4631.334;  224.171; 4520.790;-0.01103
 855.17; 4622.783;  234.066; 4501.904;-0.01213
 855.73; 4653.565;  222.627; 4484.352;-0.01691
 856.29; 4638.680;  213.855; 4475.132;-0.01636
 856.85; 4649.462;  192.749; 4517.913;-0.01301
 857.41; 4672.577;  203.644; 4600.027;-0.00711
 857.97; 4779.025;  205.205; 4760.141;-0.00180
 858.53; 4939.807;  207.433; 4902.255;-0.00346
 859.09; 5146.589;  192.328; 5028.370;-0.01049
 859.65; 5408.038;  184.889; 5166.484;-0.02056
 860.21; 5676.153;  182.451; 5403.598;-0.02210
 860.77; 5991.268;  179.679; 5685.045;-0.02351
 861.33; 6282.383;  189.573; 6014.826;-0.01950
 861.89; 6598.499;  205.135; 6331.273;-0.01854
 862.45; 6865.280;  215.363; 6656.387;-0.01386
 863.01; 7202.062;  205.924; 6960.168;-0.01528
 863.57; 7494.511;  191.152; 7240.949;-0.01535
 864.13; 7875.626;  180.713; 7598.730;-0.01592
 864.69; 8212.408;  188.608; 7928.510;-0.01564
 865.25; 8588.523;  208.502; 8274.958;-0.01656
 865.81; 8912.972;  215.730; 8598.739;-0.01598
 866.37; 9276.087;  213.625; 8883.853;-0.01922
 866.93; 9618.536;  200.853; 9198.967;-0.01979
 867.49; 9974.984;  216.081; 9536.081;-0.01999
 868.05;10273.766;  210.642; 9849.195;-0.01872
 868.61;10599.548;  206.870;10116.309;-0.02068
 869.17;10898.996;  185.765;10306.090;-0.02473
 869.73;11193.445;  202.660;10652.537;-0.02192
 870.29;11506.227;  209.554;10985.985;-0.02048
 870.85;11835.009;  212.115;11316.099;-0.01984
 871.41;12208.791;  192.010;11700.213;-0.01878
 871.97;12572.572;  179.571;12032.994;-0.01933
 872.53;12998.688;  184.799;12414.108;-0.02028
 873.09;13389.803;  192.361;12748.222;-0.02164
 873.65;13822.251;  202.922;13125.336;-0.02281
 874.20;14159.700;  204.150;13530.783;-0.02003
 874.76;14574.033;  206.483;13844.450;-0.02263
 875.32;14951.700;  199.150;14344.450;-0.01825
 875.88;15348.033;  204.817;14722.117;-0.01833
 876.44;15697.700;  218.150;15059.450;-0.01829
 877.00;16048.367;  218.150;15358.117;-0.01936
 877.56;16320.033;  215.483;15696.450;-0.01715
 878.12;16590.700;  204.483;16104.450;-0.01308
 878.68;16835.033;  211.817;16344.450;-0.01301
 879.23;17120.700;  207.150;16637.783;-0.01258
 879.79;17386.700;  220.483;16875.783;-0.01312
 880.35;17649.700;  205.150;17127.117;-0.01321
 880.91;17952.367;  192.150;17367.783;-0.01454
 881.47;18250.700;  175.817;17611.783;-0.01563
 882.03;18462.367;  191.483;17929.783;-0.01285
 882.59;18700.033;  204.150;18199.450;-0.01192
 883.14;18942.700;  217.150;18423.117;-0.01222
 883.70;19144.033;  220.150;18492.117;-0.01522
 884.26;19250.367;  217.483;18606.117;-0.01496
 884.82;19233.033;  200.150;18627.783;-0.01404
 885.38;19201.700;  184.483;18693.783;-0.01176
 885.94;19235.033;  186.817;18692.783;-0.01254
 886.49;19277.033;  200.150;18759.783;-0.01194
 887.05;19270.367;  192.817;18819.450;-0.01039
 887.61;19180.367;  182.817;18766.450;-0.00957
 888.17;19048.700;  175.817;18655.450;-0.00914
 888.73;18894.033;  189.483;18492.450;-0.00943
 889.28;18627.700;  190.150;18251.117;-0.00896
 889.84;18489.033;  191.817;18020.450;-0.01127
 890.40;18379.367;  194.817;17792.450;-0.01425
 890.96;18270.367;  199.483;17628.450;-0.01571
 891.51;18035.700;  189.483;17470.117;-0.01399
 892.07;17852.367;  183.817;17244.117;-0.01521
 892.63;17722.367;  190.483;17036.783;-0.01732
 893.19;17511.367;  200.817;16880.117;-0.01613
 893.74;17292.367;  215.150;16772.783;-0.01342
 894.30;17101.700;  206.150;16671.450;-0.01120
 894.86;17020.033;  185.150;16510.450;-0.01335
 895.42;16914.367;  176.483;16397.450;-0.01362
 895.97;16826.700;  175.150;16362.450;-0.01228
 896.53;16754.700;  203.817;16299.450;-0.01211
 897.09;16766.700;  212.817;16258.117;-0.01355
 897.65;16715.367;  225.483;16079.783;-0.01707
 898.20;16663.700;  228.483;15994.117;-0.01806
 898.76;16628.367;  215.150;15888.117;-0.02004
 899.32;16577.033;  215.483;15824.450;-0.02045
 899.87;16456.367;  206.483;15765.117;-0.01888
 900.43;16201.367;  206.150;15631.783;-0.01575
 900.99;15998.700;  194.483;15508.450;-0.01369
 901.54;15808.367;  181.150;15319.450;-0.01380
 902.10;15661.367;  193.150;15133.117;-0.01509
 902.66;15553.700;  208.483;14918.117;-0.01837
 903.21;15394.367;  221.817;14754.117;-0.01872
 903.77;15202.367;  229.483;14588.450;-0.01818
 904.33;14970.700;  209.483;14443.783;-0.01579
 904.88;14831.033;  198.150;14329.783;-0.01514
 905.44;14782.033;  177.150;14293.450;-0.01478
 906.00;14745.033;  191.150;14324.117;-0.01275
 906.55;14736.367;  207.483;14294.117;-0.01343
 907.11;14614.367;  214.150;14239.117;-0.01147
 907.67;14443.033;  205.817;14016.117;-0.01322
 908.22;14244.033;  196.150;13855.783;-0.01217
 908.78;14145.700;  187.817;13715.783;-0.01359
 909.33;14002.700;  195.483;13616.783;-0.01231
 909.89;13982.367;  192.150;13488.783;-0.01583
 910.45;13815.367;  201.150;13406.783;-0.01323
 911.00;13732.033;  191.483;13362.117;-0.01203
 911.56;13624.033;  203.817;13272.117;-0.01154
 912.12;13631.700;  208.483;13101.117;-0.01751
 912.67;13548.033;  221.483;12951.117;-0.01990
 913.23;13336.700;  194.150;12807.450;-0.01785
 913.78;13185.700;  178.483;12651.783;-0.01820
 914.34;13097.033;  201.483;12642.117;-0.01560
 914.89;13024.033;  216.483;12543.117;-0.01662
 915.45;12929.700;  227.150;12558.117;-0.01289
 916.01;12784.033;  195.483;12386.117;-0.01395
 916.56;12679.367;  201.483;12282.450;-0.01404
 917.12;12503.700;  196.817;12063.117;-0.01583
 917.67;12452.033;  195.483;11981.117;-0.01702
 918.23;12303.367;  182.817;11944.450;-0.01305
 918.78;12216.367;  186.483;11927.117;-0.01057
 919.34;12059.367;  188.817;11843.783;-0.00796
 919.89;11955.700;  199.150;11694.117;-0.00977
 920.45;11846.700;  185.817;11531.783;-0.01189
 921.00;11704.367;  168.817;11330.783;-0.01430
 921.56;11645.367;  176.150;11296.783;-0.01340
 922.11;11494.033;  175.150;11154.450;-0.01323
 922.67;11355.367;  202.483;11048.450;-0.01212
 923.22;11167.700;  191.150;10815.450;-0.01417
 923.78;10982.033;  202.817;10632.117;-0.01433
 924.33;10846.700;  195.817;10497.117;-0.01449
 924.89;10674.367;  196.483;10361.117;-0.01318
 925.44;10571.033;  204.817;10248.117;-0.01374
 926.00;10363.700;  201.150;10018.783;-0.01500
 926.55;10236.033;  205.150; 9867.117;-0.01627
 927.11;10066.367;  188.150; 9720.450;-0.01548
 927.66;10001.033;  177.817; 9717.117;-0.01274
 928.22; 9974.033;  174.483; 9670.783;-0.01365
 928.77; 9977.033;  190.150; 9636.117;-0.01540
 929.33; 9999.033;  204.150; 9587.783;-0.01863
 929.88; 9949.700;  205.150; 9516.450;-0.01975
 930.43; 9917.700;  182.483; 9493.450;-0.01935
 930.99; 9867.033;  174.817; 9470.117;-0.01816
 931.54; 9826.367;  167.150; 9456.783;-0.01694
 932.10; 9832.033;  190.150; 9473.117;-0.01648
 932.65; 9834.700;  197.150; 9480.117;-0.01628
 933.21; 9876.700;  198.483; 9496.450;-0.01741
 933.76; 9883.367;  187.483; 9472.117;-0.01882
 934.31; 9907.700;  183.150; 9454.117;-0.02074
 934.87; 9898.033;  190.150; 9433.783;-0.02128
 935.42; 9899.367;  199.483; 9431.450;-0.02147
 935.98; 9851.033;  195.483; 9388.450;-0.02132
 936.53; 9803.700;  193.817; 9335.450;-0.02169
 937.08; 9739.700;  191.150; 9347.783;-0.01820
 937.64; 9690.700;  197.817; 9356.783;-0.01555
 938.19; 9654.700;  196.483; 9425.117;-0.01067
 938.74; 9610.700;  199.817; 9340.117;-0.01267
 939.30; 9620.367;  187.150; 9339.783;-0.01311
 939.85; 9597.033;  186.483; 9209.783;-0.01825
 940.40; 9606.367;  173.817; 9251.783;-0.01664
 940.96; 9559.700;  187.150; 9238.450;-0.01515
 941.51; 9545.700;  189.483; 9244.783;-0.01420
 942.06; 9500.700;  197.150; 9160.450;-0.01618
 942.62; 9467.700;  184.817; 9036.783;-0.02064
 943.17; 9361.700;  195.150; 8966.450;-0.01914
 943.72; 9265.033;  180.483; 8903.117;-0.01766
 944.28; 9182.700;  199.483; 8795.117;-0.01915
 944.83; 9122.700;  184.150; 8766.783;-0.01765
 945.38; 9126.700;  194.483; 8735.117;-0.01947
 945.94; 9082.367;  186.483; 8804.450;-0.01378
 946.49; 9050.033;  205.150; 8772.783;-0.01383
 947.04; 8968.367;  208.817; 8738.117;-0.01157
 947.60; 8883.033;  215.150; 8638.117;-0.01245
 948.15; 8835.033;  203.483; 8519.117;-0.01619
 948.70; 8748.700;  212.817; 8413.783;-0.01738
 949.25; 8715.367;  206.150; 8325.117;-0.02039
 949.81; 8614.033;  208.817; 8271.117;-0.01809
 950.36; 8482.700;  198.483; 8157.117;-0.01741
 950.91; 8358.700;  207.150; 8037.783;-0.01744
 951.46; 8188.700;  203.817; 7873.117;-0.01751
 952.02; 8021.367;  207.150; 7734.117;-0.01627
 952.57; 7892.033;  207.150; 7606.450;-0.01645
 953.12; 7781.033;  218.483; 7526.117;-0.01489
 953.67; 7693.033;  218.150; 7443.783;-0.01473
 954.23; 7519.367;  215.817; 7359.450;-0.00961
 954.78; 7383.033;  208.150; 7234.450;-0.00909
 955.33; 7256.367;  218.150; 7119.783;-0.00851
 955.88; 7137.367;  217.150; 6980.117;-0.00998
 956.44; 7082.033;  230.483; 6838.450;-0.01572
 956.99; 7045.367;  228.817; 6737.117;-0.02010
 957.54; 7002.033;  223.817; 6672.783;-0.02163
 958.09; 6959.367;  222.150; 6636.783;-0.02131
 958.64; 6905.700;  206.817; 6607.450;-0.01978
 959.20; 6845.367;  203.483; 6532.450;-0.02096
 959.75; 6757.033;  199.817; 6496.450;-0.01761
 960.30; 6690.700;  218.150; 6441.783;-0.01703
 960.85; 6697.367;  225.150; 6424.450;-0.01871
 961.40; 6709.367;  228.817; 6381.117;-0.02257
 961.95; 6728.033;  231.817; 6360.783;-0.02527
 962.51; 6746.367;  239.483; 6360.117;-0.02658
 963.06; 6745.033;  242.817; 6380.117;-0.02508
 963.61; 6703.033;  234.150; 6314.783;-0.02688
 964.16; 6661.700;  235.150; 6258.450;-0.02814
 964.71; 6609.700;  222.483; 6212.117;-0.02791
 965.26; 6582.700;  213.150; 6253.117;-0.02307
 965.81; 6550.033;  210.817; 6289.117;-0.01825
 966.36; 6559.033;  208.483; 6323.783;-0.01639
 966.92; 6602.367;  216.150; 6305.117;-0.02070
 967.47; 6599.700;  218.483; 6338.117;-0.01818
 968.02; 6637.700;  232.483; 6354.117;-0.01967
 968.57; 6688.033;  234.817; 6375.450;-0.02156
 969.12; 6727.367;  219.817; 6368.783;-0.02462
 969.67; 6738.367;  204.483; 6420.783;-0.02164
 970.22; 6756.367;  194.150; 6469.783;-0.01939
 970.77; 6830.033;  199.817; 6539.117;-0.01949
 971.32; 6939.700;  197.483; 6593.117;-0.02292
 971.87; 7048.033;  198.817; 6693.117;-0.02311
 972.42; 7165.367;  215.150; 6793.117;-0.02391
 972.98; 7252.367;  220.817; 6908.783;-0.02176
 973.53; 7309.367;  231.483; 6996.117;-0.01966
 974.08; 7333.700;  215.483; 7040.450;-0.01827
 974.63; 7395.367;  223.483; 7078.450;-0.01963
 975.18; 7502.033;  218.483; 7103.117;-0.02446
 975.73; 7634.700;  224.817; 7157.450;-0.02891
 976.28; 7666.367;  221.483; 7219.117;-0.02691
 976.83; 7650.367;  221.483; 7315.450;-0.02003
 977.38; 7645.367;  219.483; 7373.783;-0.01618
 977.93; 7626.033;  222.150; 7387.450;-0.01423
 978.48; 7648.367;  228.483; 7365.783;-0.01686
 979.03; 7665.367;  234.817; 7358.117;-0.01834
 979.58; 7743.367;  221.483; 7329.117;-0.02460
 980.13; 7711.033;  207.150; 7367.783;-0.02033
 980.68; 7624.033;  186.483; 7310.450;-0.01871
 981.23; 7579.367;  185.817; 7278.117;-0.01807
 981.78; 7545.033;  207.150; 7207.450;-0.02045
 982.33; 7546.700;  219.150; 7257.117;-0.01751
 982.88; 7493.033;  232.483; 7211.783;-0.01716
 983.43; 7452.367;  218.150; 7145.783;-0.01881
 983.98; 7437.367;  215.150; 6984.117;-0.02815
 984.53; 7358.367;  203.817; 6873.450;-0.03048
 985.08; 7307.033;  209.817; 6835.783;-0.02984
 985.63; 7120.367;  211.150; 6787.117;-0.02147
 986.18; 7038.700;  218.817; 6756.783;-0.01833
 986.73; 6943.367;  218.483; 6610.450;-0.02205
 987.27; 6959.033;  227.483; 6521.117;-0.02921
 987.82; 6889.367;  238.483; 6431.783;-0.03096
 988.37; 6806.700;  243.150; 6400.783;-0.02772
 988.92; 6678.700;  234.150; 6351.117;-0.02266
 989.47; 6590.367;  214.483; 6285.117;-0.02131
 990.02; 6512.033;  208.483; 6199.117;-0.02211
 990.57; 6433.033;  208.150; 6083.117;-0.02513
 991.12; 6317.033;  215.150; 6044.450;-0.01985
 991.67; 6234.367;  213.817; 5969.117;-0.01957
 992.22; 6156.367;  200.483; 5915.450;-0.01793
 992.77; 6115.700;  200.150; 5802.450;-0.02363
 993.31; 6026.367;  204.817; 5735.783;-0.02224
 993.86; 5937.033;  230.483; 5683.783;-0.01971
 994.41; 5850.367;  235.150; 5580.117;-0.02142
 994.96; 5720.033;  226.483; 5473.117;-0.01997
 995.51; 5612.367;  218.817; 5377.783;-0.01931
 996.06; 5437.700;  208.483; 5293.783;-0.01212
 996.61; 5365.033;  222.483; 5201.783;-0.01401
 997.15; 5275.700;  236.150; 5083.450;-0.01689
 997.70; 5198.700;  241.150; 4965.117;-0.02096
 998.25; 5055.367;  247.483; 4873.450;-0.01675
 998.80; 4924.700;  248.483; 4740.117;-0.01749
 999.35; 4761.033;  249.483; 4623.450;-0.01345
 999.90; 4620.367;  236.150; 4455.117;-0.01669
1000.44; 4483.700;  224.483; 4340.450;-0.01486
1000.99; 4363.367;  232.483; 4190.783;-0.01853
1001.54; 4252.033;  237.150; 4067.450;-0.02044
1002.09; 4117.033;  231.817; 3939.117;-0.02036
1002.64; 4071.367;  238.483; 3855.450;-0.02518
1003.18; 3998.367;  240.483; 3766.783;-0.02762
1003.73; 3912.033;  238.483; 3661.450;-0.03068
1004.28; 3793.033;  226.817; 3584.450;-0.02617
1004.83; 3651.033;  209.483; 3488.117;-0.02106
1005.38; 3564.367;  210.150; 3420.783;-0.01900
1005.92; 3515.700;  219.150; 3321.783;-0.02633
1006.47; 3449.700;  236.817; 3231.783;-0.03050
1007.02; 3376.700;  235.483; 3140.117;-0.03401
1007.57; 3243.033;  222.817; 3087.450;-0.02297
1008.11; 3183.033;  211.817; 3028.450;-0.02320
1008.66; 3106.033;  205.150; 2973.450;-0.02032
1009.21; 3045.033;  192.483; 2907.783;-0.02142
1009.75; 2983.367;  177.817; 2862.117;-0.01919
1010.30; 2899.367;  170.150; 2793.117;-0.01725
1010.85; 2815.367;  176.817; 2712.783;-0.01722
1011.40; 2738.700;  204.150; 2628.450;-0.01931
1011.94; 2680.033;  221.817; 2545.783;-0.02439
1012.49; 2596.700;  216.483; 2464.450;-0.02483
1013.04; 2522.033;  194.150; 2362.117;-0.03091
1013.58; 2415.367;  184.150; 2325.117;-0.01793
1014.13; 2350.367;  188.483; 2268.117;-0.01685
1014.68; 2264.367;  196.483; 2233.450;-0.00654
1015.23; 2232.700;  203.150; 2181.450;-0.01111
1015.77; 2182.033;  199.817; 2113.117;-0.01537
1016.32; 2184.033;  204.817; 2072.450;-0.02520
1016.87; 2153.033;  209.483; 2012.783;-0.03253
1017.41; 2110.700;  206.817; 1977.450;-0.03151
1017.96; 2029.700;  194.817; 1953.450;-0.01843
1018.50; 1957.700;  186.483; 1926.450;-0.00773
1019.05; 1936.700;  188.483; 1903.450;-0.00834
1019.60; 1883.700;  182.817; 1815.783;-0.01770
1020.14; 1839.033;  196.150; 1752.783;-0.02342
1020.69; 1775.700;  196.150; 1698.117;-0.02187
1021.24; 1749.033;  209.483; 1650.450;-0.02874
1021.78; 1694.033;  188.483; 1620.450;-0.02176
1022.33; 1649.033;  190.150; 1592.450;-0.01718
1022.87; 1608.033;  182.817; 1587.783;-0.00621
1023.42; 1594.367;  198.150; 1567.117;-0.00856
1023.97; 1541.033;  200.150; 1516.117;-0.00815
1024.51; 1501.700;  212.150; 1465.117;-0.01250
1025.06; 1449.033;  200.483; 1401.117;-0.01700
1025.60; 1431.700;  198.817; 1340.783;-0.03327
1026.15; 1383.367;  181.150; 1307.783;-0.02820
1026.70; 1354.700;  185.483; 1284.783;-0.02678
1027.24; 1355.033;  195.483; 1279.783;-0.02914
1027.79; 1348.033;  200.483; 1270.450;-0.03040
1028.33; 1329.367;  197.483; 1252.450;-0.03056
1028.88; 1262.700;  188.817; 1215.450;-0.01954
1029.42; 1223.700;  208.150; 1198.450;-0.01093
1029.97; 1169.367;  197.817; 1156.450;-0.00581
1030.51; 1155.700;  190.150; 1127.117;-0.01305
1031.06; 1132.367;  182.817; 1088.783;-0.02041
1031.61; 1147.700;  192.483; 1063.117;-0.04027
1032.15; 1119.033;  210.150; 1050.450;-0.03407
1032.70; 1094.033;  202.817; 1024.117;-0.03548
1033.24; 1064.367;  206.483; 1018.117;-0.02407
1033.79; 1063.367;  200.817; 1020.450;-0.02216
1034.33; 1041.033;  199.817; 1016.450;-0.01288
1034.88; 1026.033;  201.817; 1008.783;-0.00919
1035.42;  996.033;  202.817;  979.450;-0.00918
1035.97;  983.033;  204.483;  950.450;-0.01857
1036.51;  964.033;  206.483;  931.450;-0.01909
1037.06;  960.367;  200.817;  944.117;-0.00939
1037.60;  961.700;  207.150;  948.783;-0.00750
1038.14;  948.700;  204.150;  928.783;-0.01178
1038.69;  948.700;  222.150;  927.783;-0.01269
1039.23;  947.700;  234.483;  935.783;-0.00732
1039.78;  964.367;  235.150;  948.783;-0.00938
1040.32;  955.700;  224.483;  915.783;-0.02438
1040.87;  940.700;  208.483;  887.117;-0.03300
1041.41;  934.700;  198.150;  864.117;-0.04375
1041.96;  924.367;  200.817;  882.783;-0.02571
1042.50;  926.033;  197.817;  893.117;-0.02009
1043.04;  905.700;  213.817;  899.117;-0.00415
1043.59;  904.700;  217.150;  867.450;-0.02419
1044.13;  891.700;  212.483;  869.450;-0.01446
1044.68;  878.700;  205.817;  862.117;-0.01084
1045.22;  881.033;  199.150;  873.783;-0.00464
1045.76;  872.700;  201.817;  869.450;-0.00211
1046.31;  854.700;  193.483;  861.783; 0.00463
1046.85;  844.700;  200.483;  842.117;-0.00175
1047.40;  845.033;  202.483;  813.783;-0.02165
1047.94;  864.367;  215.150;  808.783;-0.03887
1048.48;  834.367;  211.150;  810.117;-0.01724
1049.03;  816.033;  214.483;  793.450;-0.01662
1049.57;  811.033;  229.150;  787.117;-0.01823
1050.11;  816.367;  222.817;  774.117;-0.03207
1050.66;  824.700;  218.483;  779.117;-0.03395
1051.20;  814.367;  206.483;  794.450;-0.01447
1051.74;  789.367;  200.817;  788.117;-0.00092
1052.29;  764.700;  200.150;  780.783; 0.01220
1052.83;  766.033;  199.150;  748.117;-0.01395
1053.37;  786.033;  224.817;  744.783;-0.03316
1053.92;  796.367;  234.150;  739.783;-0.04607
1054.46;  783.033;  236.483;  734.117;-0.04072
1055.00;  794.700;  231.483;  739.117;-0.04513
1055.55;  786.033;  230.817;  738.117;-0.03920
1056.09;  770.700;  223.817;  747.783;-0.01859
1056.63;  738.700;  215.817;  711.783;-0.02295
1057.17;  736.033;  216.483;  709.117;-0.02310
1057.72;  740.033;  225.150;  697.450;-0.03749
1058.26;  717.700;  223.483;  705.783;-0.01060
1058.80;  714.700;  229.817;  700.450;-0.01295
1059.35;  692.033;  230.483;  686.450;-0.00529
1059.89;  690.700;  230.150;  672.450;-0.01756
1060.43;  670.700;  227.817;  654.783;-0.01590
1060.97;  675.367;  223.817;  667.117;-0.00801
1061.52;  678.367;  231.150;  682.450; 0.00395
1062.06;  659.033;  231.483;  671.450; 0.01243
1062.60;  649.033;  236.483;  658.450; 0.00980
1063.14;  640.367;  232.483;  640.783; 0.00044
1063.69;  649.367;  216.483;  640.117;-0.00938
1064.23;  638.367;  208.817;  619.783;-0.01921
1064.77;  626.033;  200.483;  598.450;-0.02910
1065.31;  610.367;  201.817;  577.450;-0.03648
1065.85;  613.367;  206.483;  567.117;-0.05240
1066.40;  602.700;  205.150;  579.450;-0.02617
1066.94;  590.367;  217.817;  579.117;-0.01332
1067.48;  570.033;  209.150;  587.783; 0.02085
1068.02;  580.033;  233.817;  562.450;-0.02264
1068.56;  589.700;  216.817;  564.783;-0.03004
1069.10;  589.033;  212.817;  549.783;-0.04785
1069.65;  581.700;  195.817;  566.450;-0.01751
1070.19;  573.367;  208.817;  566.783;-0.00791
1070.73;  580.367;  223.817;  582.783; 0.00293
1071.27;  568.367;  215.817;  567.117;-0.00154
1071.81;  551.367;  207.150;  562.117; 0.01336
1072.35;  555.033;  201.817;  549.117;-0.00734
1072.90;  538.367;  197.150;  546.783; 0.01058
1073.44;  541.367;  202.817;  540.117;-0.00161
1073.98;  527.367;  206.150;  531.450; 0.00549
1074.52;  542.033;  224.483;  538.783;-0.00447
1075.06;  547.700;  218.483;  542.450;-0.00698
1075.60;  528.033;  207.483;  531.450; 0.00460
1076.14;  530.367;  204.817;  514.117;-0.02224
1076.68;  515.367;  207.150;  504.450;-0.01566
1077.22;  527.367;  225.817;  504.783;-0.03381
1077.76;  519.367;  214.817;  498.117;-0.03141
1078.31;  529.700;  229.817;  499.783;-0.04564
1078.85;  536.367;  226.483;  517.117;-0.02785
1079.39;  533.700;  243.817;  525.450;-0.01254
1079.93;  517.033;  237.817;  507.783;-0.01463
1080.47;  494.367;  227.483;  476.450;-0.03018
1081.01;  497.367;  216.150;  474.783;-0.03636
1081.55;  510.700;  208.483;  488.783;-0.03270
1082.09;  524.033;  205.817;  488.783;-0.05099
1082.63;  517.033;  210.150;  496.450;-0.03015
1083.17;  508.367;  221.150;  500.783;-0.01162
1083.71;  492.367;  228.817;  501.450; 0.01472
1084.25;  484.367;  224.483;  471.117;-0.02273
1084.79;  490.367;  214.483;  446.450;-0.07530
1085.33;  481.700;  202.817;  450.783;-0.05103
1085.87;  480.700;  199.483;  468.450;-0.01934
1086.41;  486.700;  214.483;  471.450;-0.02504
1086.95;  504.700;  222.150;  467.117;-0.06199
1087.49;  504.367;  225.817;  454.783;-0.08513
1088.03;  493.367;  216.817;  454.117;-0.06648
1088.57;  473.367;  219.817;  450.783;-0.04051
1089.11;  477.033;  222.150;  448.117;-0.05230
1089.65;  476.033;  233.150;  458.783;-0.03199
1090.19;  496.700;  238.483;  468.117;-0.05095
1090.73;  483.367;  240.483;  471.783;-0.02122
1091.27;  483.367;  238.817;  466.117;-0.03177
1091.81;  474.367;  238.483;  458.117;-0.03100
1092.35;  477.033;  247.483;  461.450;-0.03053
1092.89;  466.033;  232.150;  457.450;-0.01624
1093.43;  460.033;  223.817;  445.783;-0.02702
1093.97;  457.367;  210.150;  441.117;-0.02953
1094.51;  441.367;  208.483;  440.450;-0.00171
1095.04;  432.700;  218.483;  442.783; 0.01998
1095.58;  430.033;  238.817;  436.783; 0.01507
1096.12;  429.033;  242.817;  428.783;-0.00058
1096.66;  433.033;  239.817;  430.450;-0.00585
1097.20;  431.033;  235.817;  449.450; 0.03915
1097.74;  444.033;  246.817;  456.783; 0.02721
1098.28;  450.700;  235.817;  457.117; 0.01278
1098.82;  450.700;  230.483;  453.117; 0.00474
1099.36;  433.367;  228.150;  446.450; 0.02684
1099.89;  423.033;  230.150;  447.450; 0.05177

