
Integration time [ms]:   0.300
Averaging Nr. [scans]: 1
Smoothing Nr. [pixels]: 1
Data measured with spectrometer [name]: 1906252U1
Wave   ;Sample   ;Dark     ;Reference;Absorbance
[nm]   ;[counts] ;[counts] ;[counts] ;[A.U]

 161.30;  274.050;  271.207;  271.637; 0.00000
 161.90;  268.031;  265.524;  261.712; 0.00000
 162.51;  266.503;  259.038;  260.433;-0.72869
 163.11;  270.189;  265.693;  251.834; 0.00000
 163.71;  264.515;  276.696;  266.803; 0.00000
 164.31;  264.932;  294.270;  273.488; 0.00000
 164.91;  272.815;  288.393;  287.410; 0.00000
 165.52;  276.921;  277.299;  279.261; 5.00000
 166.12;  282.592;  271.979;  273.718;-0.78569
 166.72;  284.937;  272.971;  259.755; 0.00000
 167.32;  293.248;  271.656;  271.040; 0.00000
 167.93;  289.316;  261.266;  267.518;-0.65193
 168.53;  268.131;  254.112;  260.296;-0.35549
 169.13;  270.810;  264.427;  257.261; 0.00000
 169.73;  270.560;  271.677;  266.351; 0.00000
 170.33;  301.222;  291.614;  320.561; 0.47896
 170.94;  316.616;  317.756;  347.746; 5.00000
 171.54;  347.675;  335.278;  387.239; 0.62235
 172.14;  357.354;  338.926;  375.538; 0.29814
 172.74;  356.599;  324.358;  373.181; 0.18022
 173.34;  341.361;  319.589;  355.569; 0.21816
 173.95;  331.024;  309.596;  343.923; 0.20464
 174.55;  339.332;  318.289;  355.228; 0.24438
 175.15;  352.264;  320.689;  367.155; 0.16780
 175.75;  353.257;  322.370;  380.195; 0.27234
 176.35;  345.197;  332.415;  382.036; 0.58906
 176.95;  339.521;  327.740;  392.907; 0.74285
 177.56;  341.650;  327.608;  398.355; 0.70230
 178.16;  336.863;  316.738;  399.298; 0.61303
 178.76;  345.640;  316.306;  398.487; 0.44740
 179.36;  345.417;  310.874;  401.343; 0.41814
 179.96;  350.166;  304.800;  395.813; 0.30237
 180.56;  348.023;  308.938;  392.969; 0.33243
 181.17;  362.937;  318.009;  403.448; 0.27914
 181.77;  369.043;  318.897;  417.181; 0.29224
 182.37;  362.623;  306.653;  404.111; 0.24087
 182.97;  383.966;  319.309;  413.789; 0.16472
 183.57;  396.755;  323.525;  427.944; 0.15409
 184.17;  429.550;  336.736;  473.104; 0.16710
 184.78;  415.333;  316.624;  484.587; 0.23085
 185.38;  412.941;  315.012;  504.833; 0.28743
 185.98;  415.158;  315.783;  504.638; 0.27885
 186.58;  437.004;  316.598;  510.449; 0.20682
 187.18;  448.263;  313.002;  491.678; 0.12090
 187.78;  462.673;  324.256;  526.070; 0.16376
 188.38;  464.423;  331.840;  541.159; 0.19832
 188.98;  470.126;  337.804;  574.199; 0.25200
 189.59;  481.701;  332.575;  567.529; 0.19743
 190.19;  483.091;  326.870;  580.708; 0.21082
 190.79;  490.374;  326.914;  573.939; 0.17933
 191.39;  463.118;  317.159;  564.285; 0.22869
 191.99;  454.457;  322.498;  545.363; 0.22760
 192.59;  450.653;  317.307;  539.929; 0.22259
 193.19;  450.516;  313.765;  525.712; 0.19030
 193.79;  448.113;  325.164;  530.280; 0.22227
 194.39;  446.044;  328.250;  517.658; 0.20628
 195.00;  446.093;  327.216;  511.139; 0.18954
 195.60;  439.735;  305.566;  480.732; 0.11580
 196.20;  423.871;  304.088;  469.473; 0.14010
 196.80;  406.020;  305.278;  453.989; 0.16913
 197.40;  393.604;  313.686;  455.186; 0.24811
 198.00;  380.923;  320.693;  452.457; 0.33998
 198.60;  368.688;  317.270;  442.943; 0.38813
 199.20;  357.864;  312.435;  427.513; 0.40366
 199.80;  364.689;  303.957;  416.753; 0.26888
 200.40;  354.818;  299.492;  396.868; 0.24552
 201.00;  353.124;  293.841;  371.434; 0.11689
 201.60;  324.784;  292.845;  340.403; 0.17290
 202.21;  325.965;  298.995;  352.240; 0.29539
 202.81;  323.210;  303.760;  367.883; 0.51809
 203.41;  326.846;  301.801;  377.921; 0.48278
 204.01;  322.533;  296.447;  373.611; 0.47100
 204.61;  321.687;  287.965;  374.799; 0.41077
 205.21;  324.803;  280.528;  391.328; 0.39838
 205.81;  331.004;  276.000;  394.567; 0.33357
 206.41;  322.475;  281.190;  389.667; 0.41954
 207.01;  321.068;  291.585;  373.516; 0.44388
 207.61;  308.481;  290.832;  349.221; 0.51961
 208.21;  304.645;  294.007;  340.088; 0.63663
 208.81;  298.942;  285.376;  350.048; 0.67827
 209.41;  299.660;  292.971;  355.294; 0.96926
 210.01;  303.965;  286.985;  361.835; 0.64425
 210.61;  316.421;  290.534;  351.990; 0.37549
 211.21;  313.234;  293.399;  356.219; 0.50065
 211.81;  308.827;  300.157;  352.258; 0.77884
 212.41;  293.420;  301.896;  344.513; 5.00000
 213.01;  302.969;  296.332;  351.625; 0.92066
 213.61;  313.369;  285.263;  357.339; 0.40899
 214.21;  312.703;  282.939;  368.411; 0.45814
 214.81;  309.281;  278.704;  361.387; 0.43203
 215.41;  312.522;  282.466;  362.645; 0.42614
 216.01;  322.740;  278.247;  362.189; 0.27569
 216.61;  323.392;  287.920;  357.792; 0.29442
 217.21;  300.373;  290.599;  357.391; 0.83468
 217.81;  293.755;  297.221;  367.800; 5.00000
 218.41;  298.683;  301.628;  379.081; 5.00000
 219.01;  309.835;  307.801;  388.505; 1.59863
 219.61;  309.898;  301.739;  384.906; 1.00833
 220.21;  308.082;  297.568;  378.507; 0.88641
 220.81;  322.918;  283.737;  372.713; 0.35620
 221.41;  335.230;  284.091;  376.024; 0.25472
 222.01;  325.565;  280.426;  372.049; 0.30745
 222.61;  318.029;  298.953;  367.451; 0.55519
 223.21;  317.482;  301.813;  357.103; 0.54762
 223.81;  327.683;  301.952;  360.676; 0.35835
 224.41;  313.119;  281.875;  343.618; 0.29583
 225.01;  289.020;  269.317;  340.250; 0.55633
 225.61;  284.550;  274.108;  341.033; 0.80683
 226.21;  281.865;  273.112;  349.918; 0.94325
 226.81;  294.149;  286.490;  349.175; 0.91300
 227.41;  296.582;  284.059;  344.282; 0.68204
 228.01;  316.144;  302.172;  351.241; 0.54555
 228.61;  329.272;  306.727;  360.474; 0.37729
 229.21;  331.173;  303.825;  362.700; 0.33301
 229.81;  324.658;  308.998;  372.791; 0.60999
 230.41;  325.267;  299.055;  383.396; 0.50754
 231.01;  324.176;  300.808;  405.942; 0.65312
 231.61;  314.008;  287.307;  401.095; 0.62957
 232.21;  318.665;  300.328;  383.489; 0.65659
 232.81;  303.363;  296.307;  370.928; 1.02427
 233.41;  310.426;  302.578;  372.995; 0.95291
 234.00;  296.421;  298.240;  379.918; 5.00000
 234.60;  312.167;  290.487;  363.623; 0.52806
 235.20;  311.499;  295.152;  359.264; 0.59350
 235.80;  309.989;  295.330;  365.432; 0.67961
 236.40;  298.227;  302.765;  379.044; 5.00000
 237.00;  308.399;  303.584;  384.824; 1.22712
 237.60;  303.638;  294.000;  377.651; 0.93849
 238.20;  316.853;  295.121;  389.214; 0.63647
 238.80;  305.876;  274.112;  389.668; 0.56086
 239.40;  320.494;  279.177;  403.402; 0.47808
 240.00;  322.739;  284.599;  402.640; 0.49065
 240.59;  328.188;  298.133;  401.312; 0.53567
 241.19;  334.326;  297.989;  399.745; 0.44722
 241.79;  334.942;  288.710;  384.715; 0.31735
 242.39;  343.101;  292.222;  383.909; 0.25577
 242.99;  333.677;  286.642;  375.121; 0.27442
 243.59;  326.743;  289.230;  388.763; 0.42379
 244.19;  310.153;  286.160;  385.560; 0.61731
 244.79;  322.483;  287.511;  384.652; 0.44368
 245.39;  327.703;  287.293;  395.554; 0.42798
 245.98;  345.942;  273.053;  391.453; 0.21069
 246.58;  327.501;  274.487;  389.290; 0.33556
 247.18;  345.303;  285.342;  384.364; 0.21786
 247.78;  339.626;  295.696;  398.758; 0.37033
 248.38;  358.670;  288.656;  421.162; 0.27705
 248.98;  332.952;  277.356;  419.988; 0.40917
 249.58;  334.301;  265.673;  430.671; 0.38098
 250.17;  334.372;  275.285;  426.842; 0.40909
 250.77;  339.511;  283.143;  431.967; 0.42164
 251.37;  329.713;  286.929;  425.089; 0.50910
 251.97;  313.359;  270.293;  429.805; 0.56866
 252.57;  327.698;  265.298;  436.882; 0.43929
 253.17;  339.391;  272.929;  449.172; 0.42354
 253.77;  341.138;  284.186;  466.282; 0.50479
 254.36;  334.198;  295.474;  468.774; 0.65083
 254.96;  324.671;  295.333;  480.567; 0.80029
 255.56;  323.400;  288.604;  484.301; 0.75005
 256.16;  327.217;  278.462;  506.509; 0.67001
 256.76;  321.821;  277.524;  496.109; 0.69325
 257.36;  321.949;  276.735;  508.603; 0.70997
 257.95;  307.029;  264.992;  503.713; 0.75426
 258.55;  313.776;  264.239;  518.084; 0.70964
 259.15;  319.121;  260.564;  510.454; 0.63017
 259.75;  335.006;  269.345;  523.998; 0.58864
 260.35;  344.527;  267.461;  538.318; 0.54588
 260.94;  345.143;  268.819;  539.764; 0.55022
 261.54;  344.772;  275.530;  547.771; 0.59458
 262.14;  340.269;  279.723;  553.422; 0.65519
 262.74;  344.255;  296.084;  592.169; 0.78863
 263.34;  330.702;  285.302;  604.600; 0.84714
 263.93;  321.929;  271.414;  619.201; 0.83789
 264.53;  341.184;  269.158;  628.783; 0.69836
 265.13;  336.047;  270.950;  628.566; 0.73985
 265.73;  337.910;  275.426;  648.466; 0.77599
 266.33;  325.446;  278.566;  678.397; 0.93089
 266.92;  323.659;  275.029;  689.673; 0.93077
 267.52;  329.064;  279.954;  705.726; 0.93801
 268.12;  322.737;  273.264;  717.281; 0.95303
 268.72;  341.705;  281.951;  749.175; 0.89316
 269.31;  352.057;  293.596;  782.505; 0.92236
 269.91;  352.848;  296.813;  783.686; 0.93896
 270.51;  353.462;  298.884;  823.747; 0.98303
 271.11;  342.670;  296.018;  844.685; 1.07044
 271.70;  339.737;  281.274;  877.686; 1.00866
 272.30;  345.426;  270.568;  887.924; 0.91630
 272.90;  351.882;  264.784;  909.412; 0.86930
 273.50;  370.894;  274.785;  916.521; 0.82459
 274.09;  368.644;  285.359;  947.539; 0.90041
 274.69;  381.563;  293.425;  961.690; 0.87978
 275.29;  374.536;  297.126; 1011.041; 0.96485
 275.89;  372.854;  301.162; 1057.168; 1.02305
 276.48;  366.927;  306.441; 1108.365; 1.12248
 277.08;  379.828;  303.217; 1149.330; 1.04314
 277.68;  382.475;  300.562; 1156.928; 1.01931
 278.28;  399.418;  297.934; 1188.748; 0.94339
 278.87;  391.230;  305.120; 1219.213; 1.02594
 279.47;  404.960;  316.402; 1279.019; 1.03623
 280.07;  403.799;  311.564; 1306.537; 1.03292
 280.66;  417.094;  305.599; 1329.806; 0.96313
 281.26;  439.529;  299.502; 1356.605; 0.87791
 281.86;  452.016;  299.353; 1408.460; 0.86124
 282.46;  456.586;  289.111; 1464.667; 0.84629
 283.05;  460.705;  270.001; 1525.842; 0.81857
 283.65;  475.773;  269.267; 1577.248; 0.80167
 284.25;  488.135;  276.537; 1628.707; 0.80552
 284.84;  498.017;  297.639; 1660.819; 0.83270
 285.44;  509.423;  304.585; 1722.349; 0.84019
 286.04;  529.048;  306.626; 1767.304; 0.81738
 286.63;  539.389;  299.604; 1827.551; 0.80429
 287.23;  555.063;  285.934; 1878.582; 0.77216
 287.83;  558.023;  285.987; 1956.635; 0.78826
 288.42;  573.411;  282.947; 2012.456; 0.77483
 289.02;  596.670;  281.018; 2081.351; 0.75615
 289.62;  603.845;  274.153; 2105.373; 0.74463
 290.21;  632.032;  278.965; 2173.882; 0.72973
 290.81;  638.540;  296.139; 2171.832; 0.73863
 291.41;  674.669;  301.675; 2217.279; 0.71060
 292.00;  665.315;  287.695; 2273.257; 0.72083
 292.60;  694.541;  266.816; 2355.570; 0.68872
 293.20;  708.631;  269.053; 2441.953; 0.69400
 293.79;  736.669;  275.331; 2498.541; 0.68296
 294.39;  750.330;  284.326; 2544.463; 0.68575
 294.99;  771.231;  280.435; 2588.095; 0.67227
 295.58;  789.994;  284.687; 2619.961; 0.66478
 296.18;  818.251;  271.100; 2672.236; 0.64231
 296.78;  843.875;  267.474; 2741.524; 0.63268
 297.37;  895.971;  256.039; 2819.912; 0.60276
 297.97;  924.154;  255.858; 2927.442; 0.60180
 298.57;  975.283;  262.727; 2989.557; 0.58284
 299.16; 1020.967;  278.359; 3083.789; 0.57724
 299.76; 1039.883;  281.775; 3176.366; 0.58186
 300.35; 1047.458;  281.214; 3269.362; 0.59104
 300.95; 1050.929;  278.404; 3324.462; 0.59583
 301.55; 1075.753;  287.229; 3346.846; 0.58885
 302.14; 1113.994;  278.314; 3431.366; 0.57669
 302.74; 1157.813;  277.164; 3537.862; 0.56851
 303.33; 1221.478;  277.506; 3665.575; 0.55499
 303.93; 1270.587;  284.053; 3763.621; 0.54741
 304.53; 1315.079;  290.889; 3809.743; 0.53602
 305.12; 1349.982;  285.666; 3889.067; 0.52964
 305.72; 1400.640;  304.345; 3962.749; 0.52336
 306.31; 1404.423;  292.556; 4062.826; 0.53032
 306.91; 1439.188;  290.122; 4183.574; 0.52999
 307.51; 1471.649;  280.000; 4278.734; 0.52577
 308.10; 1531.942;  295.710; 4394.048; 0.52051
 308.70; 1581.775;  291.190; 4468.751; 0.51014
 309.29; 1606.645;  287.634; 4547.826; 0.50918
 309.89; 1660.393;  264.902; 4638.675; 0.49613
 310.48; 1704.645;  273.673; 4739.754; 0.49430
 311.08; 1755.029;  268.620; 4876.118; 0.49133
 311.68; 1768.411;  273.221; 4959.384; 0.49612
 312.27; 1803.601;  278.703; 5074.278; 0.49760
 312.87; 1846.111;  271.869; 5225.848; 0.49788
 313.46; 1920.287;  276.691; 5385.013; 0.49248
 314.06; 2000.123;  276.193; 5529.885; 0.48394
 314.65; 2066.085;  282.238; 5632.559; 0.47702
 315.25; 2125.402;  283.262; 5774.255; 0.47433
 315.85; 2157.693;  277.637; 5914.876; 0.47690
 316.44; 2205.751;  287.913; 6071.938; 0.47942
 317.04; 2272.082;  295.255; 6216.984; 0.47648
 317.63; 2342.504;  310.823; 6400.341; 0.47673
 318.23; 2410.907;  298.737; 6546.296; 0.47098
 318.82; 2466.099;  293.221; 6674.883; 0.46790
 319.42; 2508.051;  273.276; 6781.545; 0.46423
 320.01; 2569.923;  280.055; 6929.646; 0.46298
 320.61; 2648.483;  290.511; 7164.652; 0.46468
 321.20; 2729.930;  285.758; 7272.939; 0.45617
 321.80; 2792.479;  292.860; 7497.718; 0.45975
 322.39; 2820.490;  275.154; 7636.540; 0.46121
 322.99; 2852.215;  275.755; 7857.556; 0.46875
 323.58; 2919.726;  286.597; 7977.531; 0.46551
 324.18; 2975.770;  287.901; 8124.673; 0.46473
 324.77; 3060.843;  292.485; 8318.013; 0.46225
 325.37; 3130.675;  278.984; 8442.167; 0.45676
 325.96; 3271.747;  276.253; 8588.958; 0.44327
 326.56; 3322.231;  298.768; 8771.095; 0.44750
 327.15; 3368.956;  300.036; 8947.778; 0.44992
 327.75; 3385.731;  300.925; 9129.536; 0.45666
 328.34; 3457.946;  272.723; 9291.838; 0.45202
 328.94; 3523.941;  266.072; 9447.905; 0.45000
 329.53; 3602.582;  277.765; 9658.876; 0.45049
 330.13; 3682.571;  293.098; 9872.460; 0.45120
 330.72; 3725.545;  297.428;10112.576; 0.45684
 331.32; 3786.152;  296.807;10347.750; 0.45946
 331.91; 3878.961;  286.021;10578.045; 0.45705
 332.51; 4023.496;  290.846;10832.428; 0.45089
 333.10; 4119.737;  280.941;11112.686; 0.45050
 333.69; 4207.953;  268.720;11343.870; 0.44894
 334.29; 4198.994;  259.020;11372.294; 0.45035
 334.88; 4199.501;  263.526;11404.218; 0.45186
 335.48; 4176.865;  274.151;11347.513; 0.45291
 336.07; 4217.291;  277.361;11521.065; 0.45542
 336.67; 4253.503;  271.793;11561.792; 0.45262
 337.26; 4310.480;  270.478;11724.744; 0.45259
 337.86; 4371.654;  274.661;11795.073; 0.44900
 338.45; 4432.596;  285.081;11996.201; 0.45081
 339.04; 4482.430;  280.248;12122.714; 0.44997
 339.64; 4539.406;  279.247;12324.855; 0.45140
 340.23; 4598.406;  276.541;12444.594; 0.44955
 340.83; 4650.165;  283.446;12579.002; 0.44959
 341.42; 4699.288;  284.034;12728.085; 0.45001
 342.02; 4753.855;  280.810;12860.717; 0.44907
 342.61; 4762.927;  285.029;12994.842; 0.45307
 343.20; 4802.568;  280.703;13173.363; 0.45502
 343.80; 4824.265;  275.024;13326.514; 0.45772
 344.39; 4894.111;  277.525;13574.777; 0.45944
 344.99; 4971.599;  284.701;13698.586; 0.45667
 345.58; 5051.339;  281.629;13941.331; 0.45695
 346.17; 5123.553;  272.425;14086.941; 0.45449
 346.77; 5195.719;  263.601;14425.499; 0.45809
 347.36; 5282.229;  267.766;14640.403; 0.45731
 347.96; 5364.543;  271.456;14918.073; 0.45876
 348.55; 5375.282;  272.039;15018.413; 0.46084
 349.14; 5439.832;  269.152;15148.264; 0.45903
 349.74; 5519.801;  282.193;15379.635; 0.45977
 350.33; 5638.737;  292.264;15619.281; 0.45739
 350.92; 5701.960;  292.029;15990.758; 0.46267
 351.52; 5769.657;  276.988;16197.719; 0.46218
 352.11; 5825.666;  277.642;16449.038; 0.46461
 352.70; 5909.422;  293.221;16652.467; 0.46432
 353.30; 5975.249;  299.069;16923.354; 0.46669
 353.89; 6055.757;  289.556;17199.826; 0.46726
 354.49; 6168.769;  295.537;17471.125; 0.46603
 355.08; 6272.188;  303.789;17648.240; 0.46330
 355.67; 6352.804;  306.509;17850.877; 0.46265
 356.27; 6378.973;  292.678;18013.082; 0.46412
 356.86; 6429.275;  288.376;18230.048; 0.46563
 357.45; 6530.895;  297.756;18507.331; 0.46559
 358.05; 6631.447;  297.214;18684.613; 0.46283
 358.64; 6727.487;  292.504;18894.298; 0.46101
 359.23; 6766.022;  289.300;19081.825; 0.46263
 359.83; 6799.541;  289.121;19433.380; 0.46843
 360.42; 6932.146;  293.174;19722.600; 0.46636
 361.01; 7046.307;  287.355;19981.487; 0.46446
 361.61; 7147.518;  287.502;20183.522; 0.46244
 362.20; 7163.701;  294.987;20496.718; 0.46851
 362.79; 7262.758;  302.910;20634.303; 0.46557
 363.38; 7346.377;  301.613;20815.514; 0.46418
 363.98; 7410.164;  289.171;20943.715; 0.46248
 364.57; 7406.592;  277.744;21176.149; 0.46709
 365.16; 7460.743;  288.573;21351.502; 0.46787
 365.76; 7575.921;  293.720;21537.287; 0.46496
 366.35; 7706.403;  294.920;21731.542; 0.46125
 366.94; 7797.213;  286.459;21913.791; 0.45932
 367.53; 7750.243;  286.426;22067.466; 0.46512
 368.13; 7733.332;  291.994;22246.489; 0.46987
 368.72; 7758.172;  285.482;22413.295; 0.47146
 369.31; 7861.357;  292.281;22597.374; 0.46936
 369.91; 7913.915;  283.382;22746.877; 0.46892
 370.50; 7919.286;  291.699;22820.059; 0.47034
 371.09; 7973.323;  278.017;22946.909; 0.46920
 371.68; 8035.044;  286.967;23106.324; 0.46911
 372.28; 8149.353;  294.984;23340.584; 0.46748
 372.87; 8172.299;  297.367;23443.502; 0.46823
 373.46; 8211.957;  297.723;23614.255; 0.46926
 374.05; 8259.467;  287.889;23758.158; 0.46897
 374.65; 8328.903;  290.440;23950.173; 0.46884
 375.24; 8420.756;  272.918;24146.349; 0.46687
 375.83; 8493.154;  275.848;24331.370; 0.46649
 376.42; 8550.467;  273.516;24515.563; 0.46670
 377.02; 8617.076;  293.907;24527.502; 0.46413
 377.61; 8653.542;  288.112;24762.668; 0.46623
 378.20; 8697.918;  297.747;24944.118; 0.46746
 378.79; 8795.655;  297.015;25086.217; 0.46491
 379.38; 8925.821;  282.191;25204.109; 0.45989
 379.98; 9033.446;  267.243;25344.469; 0.45647
 380.57; 9093.887;  272.112;25606.751; 0.45816
 381.16; 9091.373;  291.609;25727.129; 0.46097
 381.75; 9184.727;  289.589;25767.151; 0.45701
 382.35; 9277.601;  283.703;25937.612; 0.45521
 382.94; 9381.067;  271.231;26182.039; 0.45397
 383.53; 9460.762;  279.541;26558.760; 0.45671
 384.12; 9542.549;  269.432;26865.627; 0.45759
 384.71; 9632.249;  284.069;27028.687; 0.45651
 385.31; 9733.264;  287.699;27353.893; 0.45720
 385.90; 9883.555;  299.731;27598.110; 0.45460
 386.49;10015.995;  283.306;27919.987; 0.45325
 387.08;10119.881;  296.763;28085.602; 0.45162
 387.67;10207.924;  302.047;28384.267; 0.45254
 388.26;10306.496;  312.463;28670.094; 0.45293
 388.86;10474.064;  297.866;29041.131; 0.45095
 389.45;10584.536;  285.685;29324.329; 0.45019
 390.04;10747.657;  279.860;29566.863; 0.44682
 390.63;10874.650;  284.795;29878.048; 0.44630
 391.22;10999.239;  294.422;30097.179; 0.44468
 391.81;11055.446;  303.408;30368.117; 0.44657
 392.41;11137.801;  324.211;30517.642; 0.44594
 393.00;11232.787;  349.022;30747.606; 0.44607
 393.59;11431.573;  379.676;31111.212; 0.44415
 394.18;11593.514;  399.780;31505.223; 0.44386
 394.77;11720.572;  433.703;31930.599; 0.44569
 395.36;11806.653;  473.557;32244.356; 0.44768
 395.95;11926.132;  524.323;32561.017; 0.44867
 396.55;12059.157;  566.236;32856.406; 0.44864
 397.14;12207.800;  594.577;33298.717; 0.44965
 397.73;12375.638;  601.786;33627.642; 0.44794
 398.32;12600.947;  612.294;34204.404; 0.44747
 398.91;12855.492;  621.039;34614.988; 0.44382
 399.50;13076.902;  632.059;35200.379; 0.44369
 400.09;13284.392;  605.452;35675.306; 0.44185
 400.68;13488.811;  582.293;36366.134; 0.44288
 401.27;13771.115;  548.561;37014.694; 0.44057
 401.87;14025.140;  525.771;37604.957; 0.43882
 402.46;14360.393;  501.053;38119.893; 0.43366
 403.05;14587.485;  484.389;38675.942; 0.43265
 403.64;14912.390;  490.521;39240.769; 0.42925
 404.23;15084.147;  484.797;39841.080; 0.43068
 404.82;15314.366;  502.588;40438.695; 0.43076
 405.41;15440.679;  491.629;41140.816; 0.43444
 406.00;15771.474;  497.890;41752.976; 0.43154
 406.59;16030.472;  479.966;42383.807; 0.43051
 407.18;16355.345;  482.149;42943.385; 0.42733
 407.77;16476.310;  466.520;43500.038; 0.42942
 408.37;16670.159;  484.641;43973.019; 0.42925
 408.96;16775.957;  491.806;44465.898; 0.43143
 409.55;17030.627;  504.476;44970.283; 0.42985
 410.14;17167.186;  481.626;45459.452; 0.43066
 410.73;17453.182;  490.299;45905.805; 0.42770
 411.32;17636.646;  492.855;46441.730; 0.42817
 411.91;17897.855;  505.687;47060.216; 0.42761
 412.50;18013.161;  480.732;47624.639; 0.42958
 413.09;18202.082;  484.505;48110.411; 0.42944
 413.68;18330.472;  482.467;48573.257; 0.43047
 414.27;18488.800;  487.472;48936.919; 0.42998
 414.86;18682.143;  462.470;49236.309; 0.42765
 415.45;18827.416;  452.555;49687.411; 0.42805
 416.04;18988.584;  462.743;50083.734; 0.42789
 416.63;19110.112;  468.551;50542.275; 0.42913
 417.22;19252.470;  461.867;50754.683; 0.42757
 417.81;19349.189;  462.159;51068.477; 0.42804
 418.40;19414.996;  476.694;51393.675; 0.42952
 418.99;19561.563;  477.832;51737.830; 0.42912
 419.58;19770.212;  462.218;51969.382; 0.42613
 420.17;19861.821;  452.952;52248.392; 0.42629
 420.76;19967.858;  458.593;52499.836; 0.42611
 421.35;20000.462;  472.988;53005.769; 0.42978
 421.94;20054.501;  474.287;53203.501; 0.43023
 422.53;20081.201;  469.601;53402.299; 0.43121
 423.12;20104.268;  471.552;53493.823; 0.43148
 423.71;20206.146;  463.366;53670.857; 0.43056
 424.30;20164.592;  471.573;53819.883; 0.43281
 424.89;20174.202;  477.611;53888.037; 0.43323
 425.48;20144.322;  477.854;53974.356; 0.43460
 426.07;20136.772;  465.438;53940.695; 0.43432
 426.66;20150.464;  460.097;54040.507; 0.43475
 427.25;20025.903;  453.014;53995.096; 0.43704
 427.84;19982.720;  450.549;53912.043; 0.43729
 428.43;19930.092;  452.848;53711.442; 0.43686
 429.02;19914.506;  457.772;53797.552; 0.43798
 429.61;19774.580;  448.720;53826.107; 0.44122
 430.20;19603.160;  425.820;53758.443; 0.44420
 430.79;19432.310;  437.001;53531.580; 0.44640
 431.38;19381.187;  442.471;53315.543; 0.44588
 431.97;19264.952;  451.391;53001.434; 0.44610
 432.55;19112.535;  445.807;52690.011; 0.44697
 433.14;18983.598;  441.412;52704.411; 0.45003
 433.73;18823.398;  432.971;52655.054; 0.45326
 434.32;18666.438;  424.624;52606.263; 0.45645
 434.91;18502.235;  423.161;52233.737; 0.45724
 435.50;18307.670;  418.064;51971.869; 0.45966
 436.09;18205.987;  418.432;51687.970; 0.45974
 436.68;18048.876;  422.559;51624.303; 0.46312
 437.27;18036.906;  439.214;51661.122; 0.46400
 437.86;17888.561;  433.576;51508.561; 0.46629
 438.45;17801.341;  436.794;51330.326; 0.46700
 439.04;17657.654;  419.148;51043.637; 0.46786
 439.62;17559.470;  412.025;51000.963; 0.46986
 440.21;17306.075;  413.441;50885.373; 0.47535
 440.80;17080.251;  430.263;51024.538; 0.48269
 441.39;16994.276;  449.560;51081.161; 0.48576
 441.98;16990.310;  447.874;51020.625; 0.48532
 442.57;16914.353;  436.530;50797.219; 0.48519
 443.16;16703.244;  425.660;50702.578; 0.48978
 443.75;16523.776;  431.481;50788.909; 0.49545
 444.33;16368.240;  435.018;50969.383; 0.50128
 444.92;16258.566;  440.355;50892.685; 0.50372
 445.51;16152.337;  417.614;50850.986; 0.50586
 446.10;16169.701;  410.612;51056.876; 0.50702
 446.69;16083.615;  404.712;51275.545; 0.51115
 447.28;16084.739;  420.929;51457.726; 0.51299
 447.87;15836.019;  412.657;51329.383; 0.51868
 448.45;15749.316;  413.036;51412.748; 0.52185
 449.04;15596.820;  390.874;51445.980; 0.52603
 449.63;15556.732;  386.972;51646.289; 0.52879
 450.22;15395.208;  381.501;51835.467; 0.53493
 450.81;15245.954;  386.090;52100.884; 0.54160
 451.40;15158.729;  391.666;52058.120; 0.54391
 451.98;15078.189;  398.229;52052.065; 0.54638
 452.57;15014.566;  403.856;52211.469; 0.54972
 453.16;14816.128;  401.626;52273.023; 0.55613
 453.75;14784.767;  391.994;52359.708; 0.55759
 454.34;14715.297;  388.814;52215.013; 0.55841
 454.93;14654.559;  395.232;52494.699; 0.56273
 455.51;14448.331;  391.805;52615.216; 0.56999
 456.10;14271.478;  402.670;52907.445; 0.57816
 456.69;14168.039;  396.116;53041.712; 0.58237
 457.28;14126.852;  403.304;53288.203; 0.58587
 457.87;13999.929;  395.902;53216.666; 0.58914
 458.45;13976.419;  396.108;53304.691; 0.59062
 459.04;13981.256;  388.965;53401.373; 0.59108
 459.63;13999.573;  395.666;53676.141; 0.59290
 460.22;13889.161;  396.420;53639.128; 0.59616
 460.80;13835.632;  400.600;53692.823; 0.59843
 461.39;13812.077;  392.483;53895.895; 0.60064
 461.98;13816.127;  393.792;54364.115; 0.60433
 462.57;13758.742;  398.874;54782.941; 0.60967
 463.16;13680.631;  397.668;55197.607; 0.61549
 463.74;13653.907;  387.726;55673.212; 0.61987
 464.33;13613.856;  376.102;56213.777; 0.62511
 464.92;13640.524;  370.427;56547.398; 0.62668
 465.51;13634.460;  357.831;56911.710; 0.62937
 466.09;13616.449;  358.204;57352.888; 0.63335
 466.68;13586.827;  361.518;57898.436; 0.63854
 467.27;13566.682;  372.331;58292.638; 0.64244
 467.86;13650.438;  368.243;58560.733; 0.64160
 468.44;13667.592;  363.094;58919.922; 0.64358
 469.03;13635.473;  361.882;59322.152; 0.64757
 469.62;13573.900;  367.807;59788.037; 0.65316
 470.20;13574.757;  365.300;60231.337; 0.65630
 470.79;13633.626;  374.762;60677.863; 0.65783
 471.38;13639.576;  358.816;61146.166; 0.66059
 471.97;13681.051;  359.020;61564.389; 0.66222
 472.55;13686.633;  350.111;61933.679; 0.66442
 473.14;13768.849;  362.234;62406.602; 0.66538
 473.73;13745.299;  355.473;62971.535; 0.66991
 474.31;13749.370;  347.428;63489.444; 0.67315
 474.90;13735.688;  350.797;63899.238; 0.67649
 475.49;13738.742;  352.737;64160.914; 0.67823
 476.07;13755.926;  357.870;64473.326; 0.67992
 476.66;13725.262;  347.892;64752.829; 0.68255
 477.25;13700.599;  340.581;65000.332; 0.68483
 477.84;13664.758;  352.761;65155.193; 0.68735
 478.42;13718.793;  344.733;65155.945; 0.68539
 479.01;13706.845;  344.681;65156.001; 0.68577
 479.60;13633.322;  330.210;65156.511; 0.68780
 480.18;13562.618;  334.265;65158.257; 0.69023
 480.77;13555.426;  342.135;65159.480; 0.69068
 481.35;13570.660;  347.900;65159.373; 0.69033
 481.94;13569.820;  344.738;65159.188; 0.69027
 482.53;13589.507;  335.059;65159.923; 0.68938
 483.11;13558.240;  332.000;65160.709; 0.69033
 483.70;13472.516;  318.067;65161.719; 0.69279
 484.29;13381.681;  316.585;65163.324; 0.69578
 484.87;13339.817;  306.461;65164.542; 0.69691
 485.46;13311.566;  315.710;65164.272; 0.69810
 486.05;13197.637;  319.958;65162.920; 0.70203
 486.63;13174.352;  321.237;65162.258; 0.70284
 487.22;13086.960;  317.302;65162.909; 0.70570
 487.81;13136.988;  323.288;65164.368; 0.70418
 488.39;13025.755;  331.856;65164.474; 0.70820
 488.98;12944.730;  337.207;65163.733; 0.71112
 489.56;12762.387;  317.228;65164.794; 0.71689
 490.15;12705.858;  310.772;65166.371; 0.71870
 490.74;12535.203;  302.771;65167.454; 0.72450
 491.32;12389.390;  305.937;65168.774; 0.72980
 491.91;12162.565;  316.111;64974.057; 0.73703
 492.49;12014.516;  317.823;64712.314; 0.74079
 493.08;11852.059;  332.939;64167.133; 0.74363
 493.67;11723.495;  325.500;63724.219; 0.74525
 494.25;11576.082;  343.920;63105.848; 0.74723
 494.84;11434.949;  335.724;62474.087; 0.74807
 495.42;11314.955;  338.386;61959.759; 0.74926
 496.01;11201.473;  319.873;61399.648; 0.74920
 496.59;11158.575;  310.443;60754.114; 0.74600
 497.18;11050.915;  311.106;60078.479; 0.74547
 497.77;10886.636;  311.733;59331.632; 0.74672
 498.35;10736.745;  326.966;58841.796; 0.74982
 498.94;10559.872;  324.499;58030.218; 0.75112
 499.52;10484.797;  324.914;57567.186; 0.75083
 500.11;10318.117;  311.275;56906.600; 0.75248
 500.69;10204.454;  304.601;56449.246; 0.75368
 501.28;10101.241;  315.149;55764.708; 0.75329
 501.86; 9981.768;  317.653;55155.772; 0.75392
 502.45; 9896.182;  338.264;54632.693; 0.75439
 503.03; 9781.170;  328.939;54106.656; 0.75507
 503.62; 9766.375;  339.385;53665.090; 0.75256
 504.20; 9763.217;  326.215;53123.968; 0.74778
 504.79; 9783.674;  326.766;52666.148; 0.74308
 505.37; 9808.176;  326.582;52358.543; 0.73939
 505.96; 9847.144;  332.269;51859.105; 0.73363
 506.55; 9887.062;  327.706;51491.158; 0.72853
 507.13; 9940.976;  315.837;51254.709; 0.72364
 507.72; 9932.542;  312.954;51138.387; 0.72292
 508.30;10010.217;  319.265;50944.634; 0.71800
 508.89;10031.360;  316.460;50626.145; 0.71421
 509.47;10181.567;  308.593;50383.056; 0.70517
 510.05;10207.448;  311.037;50305.214; 0.70344
 510.64;10308.486;  312.992;50205.541; 0.69823
 511.22;10381.506;  326.961;50242.492; 0.69587
 511.81;10558.272;  323.186;50282.527; 0.68853
 512.39;10718.041;  329.747;50266.280; 0.68187
 512.98;10886.817;  310.647;50213.110; 0.67379
 513.56;11108.201;  306.947;50200.284; 0.66457
 514.15;11341.010;  297.484;50225.841; 0.65524
 514.73;11569.186;  293.306;50310.339; 0.64697
 515.32;11690.247;  298.909;50412.714; 0.64338
 515.90;11859.925;  306.909;50529.464; 0.63820
 516.49;12020.959;  321.223;50576.262; 0.63300
 517.07;12234.109;  323.415;50501.804; 0.62458
 517.66;12386.535;  325.663;50468.951; 0.61883
 518.24;12581.706;  330.491;50581.443; 0.61297
 518.82;12743.736;  322.791;50433.118; 0.60577
 519.41;13028.759;  321.449;50483.238; 0.59632
 519.99;13280.327;  304.901;50520.942; 0.58772
 520.58;13636.195;  313.039;50964.514; 0.57999
 521.16;13869.757;  316.114;51139.212; 0.57401
 521.75;14145.262;  315.579;51354.849; 0.56709
 522.33;14427.135;  314.722;51552.832; 0.55999
 522.91;14757.600;  303.280;51724.449; 0.55114
 523.50;15030.888;  304.661;51708.091; 0.54290
 524.08;15309.934;  292.957;51816.521; 0.53542
 524.67;15569.531;  296.699;52029.160; 0.52984
 525.25;15860.001;  294.898;52244.306; 0.52343
 525.83;16099.371;  300.195;52281.679; 0.51721
 526.42;16389.301;  299.604;52255.985; 0.50909
 527.00;16692.508;  297.414;52315.968; 0.50144
 527.59;16907.191;  293.742;52194.390; 0.49471
 528.17;17155.235;  296.702;52169.461; 0.48812
 528.75;17278.533;  314.407;52237.781; 0.48583
 529.34;17538.308;  317.963;52410.206; 0.48073
 529.92;17726.170;  322.096;52599.701; 0.47766
 530.50;18003.174;  308.099;52577.086; 0.47039
 531.09;18276.997;  310.277;52580.588; 0.46379
 531.67;18445.231;  319.699;52493.409; 0.45916
 532.25;18625.381;  331.224;52474.618; 0.45489
 532.84;18776.361;  319.265;52286.406; 0.44957
 533.42;19030.384;  303.579;52069.121; 0.44158
 534.00;19207.246;  296.379;51800.283; 0.43513
 534.59;19341.363;  306.923;51692.027; 0.43130
 535.17;19464.565;  307.396;51484.292; 0.42674
 535.75;19657.816;  311.833;51399.345; 0.42172
 536.34;19867.475;  327.170;51106.314; 0.41475
 536.92;19952.937;  323.362;50970.357; 0.41164
 537.50;20009.208;  320.767;50555.361; 0.40679
 538.09;20095.748;  304.234;50224.272; 0.40180
 538.67;20228.668;  307.957;49849.711; 0.39567
 539.25;20325.944;  292.004;49517.578; 0.39042
 539.84;20360.594;  298.382;49195.084; 0.38690
 540.42;20501.719;  287.620;48747.408; 0.37973
 541.00;20702.956;  304.712;48328.615; 0.37186
 541.59;20749.541;  293.453;47996.146; 0.36772
 542.17;20762.292;  303.713;47681.974; 0.36470
 542.75;20823.329;  301.687;47449.085; 0.36125
 543.33;20901.745;  321.928;47035.436; 0.35600
 543.92;20990.869;  322.791;46647.473; 0.35051
 544.50;21045.694;  319.637;46212.001; 0.34522
 545.08;21215.023;  303.653;45900.067; 0.33855
 545.67;21285.090;  304.594;45544.519; 0.33371
 546.25;21390.163;  306.855;45243.598; 0.32866
 546.83;21480.435;  305.919;44881.223; 0.32328
 547.41;21627.503;  307.185;44485.963; 0.31642
 548.00;21624.638;  304.048;44073.416; 0.31237
 548.58;21613.144;  293.554;43651.340; 0.30829
 549.16;21572.446;  273.252;43462.973; 0.30702
 549.74;21598.144;  276.221;43125.006; 0.30311
 550.33;21543.711;  287.338;42789.017; 0.30092
 550.91;21579.208;  287.502;42328.145; 0.29546
 551.49;21591.912;  275.114;42084.067; 0.29255
 552.07;21774.502;  281.527;41894.675; 0.28693
 552.66;21881.660;  296.715;41696.915; 0.28285
 553.24;22130.173;  301.874;41407.799; 0.27488
 553.82;22282.013;  287.046;41262.389; 0.27020
 554.40;22384.563;  287.502;41018.645; 0.26559
 554.98;22475.878;  286.839;40927.197; 0.26282
 555.57;22469.195;  295.511;40724.442; 0.26085
 556.15;22713.583;  295.794;40729.857; 0.25615
 556.73;22703.182;  289.872;40584.856; 0.25474
 557.31;22844.982;  280.087;40487.094; 0.25087
 557.89;22847.398;  267.680;40402.230; 0.24980
 558.48;23056.682;  270.725;40389.487; 0.24568
 559.06;23355.132;  269.279;40492.969; 0.24114
 559.64;23543.567;  288.172;40421.363; 0.23698
 560.22;23756.784;  308.276;40298.501; 0.23184
 560.80;23839.321;  311.749;40155.433; 0.22878
 561.39;23962.246;  300.174;40123.139; 0.22608
 561.97;24097.507;  304.256;40118.465; 0.22358
 562.55;24269.907;  305.864;40159.584; 0.22091
 563.13;24521.455;  307.652;40244.814; 0.21731
 563.71;24679.101;  295.320;40343.674; 0.21548
 564.29;24911.751;  296.315;40286.513; 0.21075
 564.88;25031.911;  280.495;40218.374; 0.20778
 565.46;25166.500;  277.260;40267.767; 0.20595
 566.04;25334.964;  269.464;40338.574; 0.20373
 566.62;25610.255;  292.162;40520.457; 0.20110
 567.20;25782.150;  292.265;40647.678; 0.19953
 567.78;26014.576;  300.170;40851.754; 0.19783
 568.36;26106.909;  300.837;41002.754; 0.19789
 568.94;26398.960;  296.460;41004.189; 0.19299
 569.53;26592.608;  295.816;41099.192; 0.19079
 570.11;26889.194;  283.902;41113.488; 0.18601
 570.69;27110.235;  278.869;41248.245; 0.18382
 571.27;27230.584;  279.854;41227.262; 0.18166
 571.85;27408.523;  279.584;41295.220; 0.17952
 572.43;27615.716;  299.078;41479.213; 0.17826
 573.01;27812.941;  288.199;41566.526; 0.17600
 573.59;27919.860;  284.931;41522.011; 0.17383
 574.17;28070.346;  270.419;41423.650; 0.17036
 574.76;28158.586;  278.826;41529.098; 0.17014
 575.34;28307.825;  274.920;41725.997; 0.16987
 575.92;28402.312;  271.771;41808.186; 0.16925
 576.50;28599.345;  265.398;41828.507; 0.16640
 577.08;28713.206;  261.206;41866.048; 0.16503
 577.66;28883.996;  250.776;41875.013; 0.16248
 578.24;29004.040;  252.747;41879.155; 0.16071
 578.82;29211.172;  257.942;41897.583; 0.15781
 579.40;29251.136;  266.978;41903.210; 0.15731
 579.98;29406.548;  273.567;41841.961; 0.15438
 580.56;29604.593;  281.852;41853.319; 0.15159
 581.14;29843.785;  291.659;41917.834; 0.14878
 581.72;29938.167;  280.280;42082.244; 0.14906
 582.30;30069.309;  273.151;42074.467; 0.14703
 582.88;30147.475;  274.650;42152.288; 0.14671
 583.46;30256.750;  282.363;42189.821; 0.14554
 584.04;30397.144;  282.956;42171.457; 0.14332
 584.62;30585.958;  265.125;42197.830; 0.14081
 585.21;30878.494;  267.265;42241.428; 0.13710
 585.79;30897.681;  273.754;42392.009; 0.13841
 586.37;30958.317;  277.118;42415.309; 0.13780
 586.95;31025.274;  275.522;42455.787; 0.13727
 587.53;31205.170;  269.979;42469.819; 0.13486
 588.11;31417.029;  278.442;42585.262; 0.13311
 588.69;31566.724;  282.733;42557.865; 0.13076
 589.27;31672.030;  283.424;42506.477; 0.12878
 589.85;31675.101;  276.026;42443.602; 0.12806
 590.43;31641.749;  271.715;42599.939; 0.13012
 591.01;31669.380;  278.076;42722.853; 0.13101
 591.59;31718.489;  288.299;42936.945; 0.13256
 592.16;31962.197;  287.924;42891.657; 0.12874
 592.74;32219.849;  291.617;42886.045; 0.12518
 593.32;32444.958;  293.193;42739.948; 0.12064
 593.90;32542.263;  297.895;42708.966; 0.11903
 594.48;32523.041;  288.777;42603.037; 0.11817
 595.06;32580.894;  285.245;42684.475; 0.11821
 595.64;32524.032;  272.769;42709.242; 0.11919
 596.22;32523.247;  276.890;42757.472; 0.11971
 596.80;32505.006;  268.138;42505.619; 0.11735
 597.38;32564.905;  264.245;42457.558; 0.11603
 597.96;32637.279;  262.869;42299.911; 0.11343
 598.54;32654.758;  268.057;42320.734; 0.11343
 599.12;32615.054;  272.769;42174.074; 0.11246
 599.70;32576.992;  272.156;42133.628; 0.11255
 600.28;32536.629;  269.178;41999.881; 0.11169
 600.86;32518.582;  273.568;41898.236; 0.11089
 601.44;32489.685;  279.130;41816.989; 0.11045
 602.02;32490.680;  273.135;41601.984; 0.10816
 602.59;32533.471;  269.019;41487.164; 0.10636
 603.17;32505.709;  254.435;41427.991; 0.10607
 603.75;32451.529;  264.600;41407.036; 0.10661
 604.33;32289.911;  268.544;41269.041; 0.10735
 604.91;32378.211;  272.574;41056.648; 0.10391
 605.49;32427.913;  271.546;40985.067; 0.10247
 606.07;32506.580;  254.900;40828.877; 0.09970
 606.65;32371.060;  260.422;40696.701; 0.10012
 607.23;32202.682;  264.441;40448.820; 0.09975
 607.80;32043.626;  277.156;40221.379; 0.09949
 608.38;31928.884;  277.256;40025.464; 0.09892
 608.96;31830.029;  285.786;39921.000; 0.09916
 609.54;31748.217;  288.246;39743.725; 0.09835
 610.12;31541.201;  283.928;39528.375; 0.09883
 610.70;31429.565;  273.259;39095.265; 0.09553
 611.28;31269.304;  259.195;38813.390; 0.09457
 611.85;31097.636;  265.841;38433.913; 0.09270
 612.43;30831.770;  260.695;38304.961; 0.09498
 613.01;30489.268;  263.202;38019.161; 0.09660
 613.59;30399.844;  249.299;37795.112; 0.09527
 614.17;30255.552;  240.914;37668.085; 0.09585
 614.75;30260.686;  222.778;37521.205; 0.09402
 615.32;30101.196;  209.277;37291.775; 0.09362
 615.90;29991.718;  219.080;36866.572; 0.09023
 616.48;29753.506;  232.952;36658.988; 0.09129
 617.06;29423.639;  255.157;36308.488; 0.09203
 617.64;29067.986;  246.140;36072.812; 0.09448
 618.22;28929.738;  241.049;35666.522; 0.09160
 618.79;28906.930;  228.178;35515.632; 0.09006
 619.37;28871.001;  227.104;35180.352; 0.08646
 619.95;28597.744;  231.387;34894.600; 0.08707
 620.53;28331.268;  218.869;34491.494; 0.08605
 621.11;27964.249;  206.529;34156.975; 0.08746
 621.68;27876.992;  201.116;33920.700; 0.08578
 622.26;27696.949;  202.843;33803.106; 0.08710
 622.84;27689.201;  212.594;33643.042; 0.08518
 623.42;27401.585;  214.208;33340.072; 0.08580
 623.99;27210.663;  232.130;33128.823; 0.08613
 624.57;27056.092;  239.695;32874.211; 0.08528
 625.15;26988.537;  249.244;32723.283; 0.08439
 625.73;26819.047;  235.066;32483.448; 0.08389
 626.30;26684.675;  228.444;32290.122; 0.08346
 626.88;26498.763;  228.031;32032.596; 0.08302
 627.46;26343.052;  230.061;31766.787; 0.08196
 628.04;26129.669;  242.419;31549.234; 0.08255
 628.61;26000.524;  241.899;31249.103; 0.08054
 629.19;25832.956;  244.829;31015.066; 0.08009
 629.77;25586.625;  231.831;30736.758; 0.08031
 630.35;25357.884;  234.217;30562.869; 0.08177
 630.92;25177.665;  232.092;30375.921; 0.08220
 631.50;25096.319;  220.757;30199.145; 0.08104
 632.08;24962.218;  206.521;29949.680; 0.07971
 632.66;24677.612;  196.801;29744.460; 0.08170
 633.23;24473.630;  216.776;29426.430; 0.08069
 633.81;24265.180;  225.566;29138.020; 0.08016
 634.39;24208.131;  220.298;28844.754; 0.07675
 634.96;24015.810;  221.956;28624.791; 0.07690
 635.54;23849.064;  216.680;28606.896; 0.07966
 636.12;23618.316;  214.735;28334.976; 0.07974
 636.69;23471.868;  204.526;28222.591; 0.08069
 637.27;23295.340;  199.403;27913.834; 0.07917
 637.85;23158.197;  217.219;27696.062; 0.07839
 638.42;22901.129;  206.286;27392.989; 0.07843
 639.00;22718.032;  223.367;27259.457; 0.07986
 639.58;22552.599;  209.789;26981.612; 0.07854
 640.15;22455.532;  222.891;26790.445; 0.07736
 640.73;22277.639;  204.119;26492.226; 0.07589
 641.31;22213.745;  216.013;26471.006; 0.07683
 641.88;22085.185;  210.908;26285.787; 0.07629
 642.46;22024.291;  226.803;26132.901; 0.07500
 643.04;21871.065;  214.697;25934.349; 0.07468
 643.61;21728.838;  223.925;25817.463; 0.07559
 644.19;21600.944;  209.153;25659.577; 0.07545
 644.77;21422.051;  224.048;25468.358; 0.07587
 645.34;21356.157;  211.943;25293.805; 0.07417
 645.92;21200.930;  214.504;25070.586; 0.07349
 646.49;21079.704;  218.399;24938.033; 0.07370
 647.07;20983.810;  220.293;24745.814; 0.07232
 647.65;20829.250;  224.188;24564.928; 0.07236
 648.22;20733.023;  218.082;24391.042; 0.07126
 648.80;20630.796;  227.310;24368.156; 0.07305
 649.37;20570.903;  227.872;24339.937; 0.07382
 649.95;20536.342;  227.433;24242.051; 0.07279
 650.53;20351.782;  209.328;24121.165; 0.07450
 651.10;20246.889;  214.222;24054.279; 0.07557
 651.68;20133.995;  211.450;24020.060; 0.07739
 652.25;20166.768;  221.012;23899.174; 0.07450
 652.83;20201.542;  211.573;23700.955; 0.07006
 653.41;20118.648;  208.468;23524.069; 0.06857
 653.98;19949.088;  212.362;23340.850; 0.06887
 654.56;19866.194;  211.590;23307.630; 0.07007
 655.13;19854.634;  208.818;23285.744; 0.06991
 655.71;19748.074;  207.379;23284.525; 0.07224
 656.28;19571.181;  194.941;23185.639; 0.07428
 656.86;19488.954;  188.169;22962.753; 0.07188
 657.43;19450.060;  190.397;22872.868; 0.07104
 658.01;19589.833;  212.958;22793.315; 0.06645
 658.58;19503.940;  207.519;22876.096; 0.06995
 659.16;19488.380;  211.747;22798.876; 0.06883
 659.74;19334.486;  196.309;22777.324; 0.07184
 660.31;19376.593;  204.203;22714.438; 0.06970
 660.89;19341.033;  198.098;22687.885; 0.06998
 661.46;19248.139;  206.659;22545.999; 0.06937
 662.04;19149.579;  208.554;22516.780; 0.07106
 662.61;19205.352;  207.448;22500.894; 0.06947
 663.19;19272.459;  206.676;22626.342; 0.07037
 663.76;19236.898;  209.571;22600.456; 0.07069
 664.34;19328.005;  211.132;22526.237; 0.06718
 664.91;19385.445;  214.027;22413.684; 0.06369
 665.49;19547.885;  216.922;22441.798; 0.06059
 666.06;19525.324;  213.150;22513.246; 0.06248
 666.64;19511.764;  212.044;22555.693; 0.06360
 667.21;19490.871;  216.606;22500.140; 0.06301
 667.79;19428.311;  204.167;22400.588; 0.06244
 668.36;19444.084;  201.395;22402.702; 0.06211
 668.93;19457.524;  202.290;22421.149; 0.06217
 669.51;19440.963;  198.184;22426.263; 0.06263
 670.08;19392.737;  192.412;22387.044; 0.06294
 670.66;19343.510;  189.307;22273.825; 0.06182
 671.23;19445.950;  213.201;22361.606; 0.06130
 671.81;19580.723;  219.763;22403.720; 0.05911
 672.38;19581.163;  224.324;22501.167; 0.06102
 672.96;19501.269;  213.552;22510.281; 0.06296
 673.53;19391.375;  213.113;22482.395; 0.06490
 674.10;19333.815;  213.008;22524.843; 0.06703
 674.68;19389.255;  228.236;22505.290; 0.06544
 675.25;19336.028;  221.131;22417.404; 0.06491
 675.83;19395.468;  215.692;22370.185; 0.06262
 676.40;19370.575;  203.253;22300.299; 0.06177
 676.98;19393.348;  209.148;22323.413; 0.06173
 677.55;19313.788;  210.043;22281.527; 0.06271
 678.12;19217.894;  223.937;22260.975; 0.06454
 678.70;19176.334;  221.832;22236.089; 0.06499
 679.27;19156.107;  229.060;22163.870; 0.06405
 679.85;19209.547;  216.621;22124.984; 0.06202
 680.42;19190.987;  216.516;22133.431; 0.06261
 680.99;19241.093;  192.744;22099.212; 0.06072
 681.57;19166.200;  198.305;22028.659; 0.06104
 682.14;19208.306;  205.866;21848.773; 0.05651
 682.71;19075.746;  210.761;21795.554; 0.05849
 683.29;18973.186;  200.656;21706.668; 0.05904
 683.86;18736.959;  185.884;21546.116; 0.06124
 684.43;18620.066;  198.112;21362.230; 0.06026
 685.01;18611.839;  197.006;21197.011; 0.05705
 685.58;18634.279;  206.234;21272.458; 0.05811
 686.16;18661.718;  206.462;21269.239; 0.05740
 686.73;18576.492;  215.023;21397.686; 0.06207
 687.30;18518.598;  207.585;21388.467; 0.06323
 687.88;18434.038;  217.479;21321.914; 0.06391
 688.45;18371.144;  210.707;21118.362; 0.06118
 689.02;18316.251;  213.602;21022.142; 0.06050
 689.60;18353.691;  190.497;20889.257; 0.05675
 690.17;18372.797;  199.391;20926.704; 0.05711
 690.74;18297.904;  189.619;20805.485; 0.05632
 691.31;18226.344;  204.181;20824.932; 0.05850
 691.89;18133.117;  191.742;20754.713; 0.05923
 692.46;18059.890;  212.637;20700.494; 0.05993
 693.03;18011.663;  229.198;20611.941; 0.05927
 693.61;17984.770;  234.759;20426.722; 0.05598
 694.18;18002.543;  237.320;20424.503; 0.05551
 694.75;17889.983;  206.882;20414.950; 0.05797
 695.32;17852.756;  208.110;20458.064; 0.05981
 695.90;17749.862;  203.004;20312.512; 0.05920
 696.47;17695.635;  203.899;20210.626; 0.05834
 697.04;17638.742;  214.460;20060.073; 0.05651
 697.62;17665.182;  213.355;20039.187; 0.05539
 698.19;17661.955;  229.250;19951.301; 0.05359
 698.76;17516.395;  211.144;19960.082; 0.05737
 699.33;17443.501;  210.706;19883.196; 0.05750
 699.91;17335.941;  196.600;19795.977; 0.05825
 700.48;17344.047;  206.162;19674.091; 0.05536
 701.05;17283.154;  208.056;19645.538; 0.05628
 701.62;17226.260;  232.951;19536.652; 0.05536
 702.20;17088.367;  235.179;19463.767; 0.05727
 702.77;16916.473;  232.073;19314.881; 0.05833
 703.34;16859.913;  217.301;19303.995; 0.05951
 703.91;16859.020;  214.196;19161.775; 0.05627
 704.48;16896.126;  220.091;19054.223; 0.05285
 705.06;16837.233;  212.652;18964.004; 0.05228
 705.63;16758.673;  221.213;18940.118; 0.05381
 706.20;16653.779;  214.441;18934.565; 0.05642
 706.77;16631.552;  221.336;18864.679; 0.05541
 707.34;16579.992;  215.564;18821.793; 0.05576
 707.92;16490.432;  205.792;18710.907; 0.05551
 708.49;16386.538;  193.353;18575.022; 0.05505
 709.06;16295.645;  193.248;18466.136; 0.05492
 709.63;16332.085;  194.476;18431.916; 0.05312
 710.20;16266.191;  191.037;18446.697; 0.05524
 710.77;16253.298;  187.932;18338.145; 0.05299
 711.35;16261.404;  185.826;18305.592; 0.05199
 711.92;16308.177;  205.721;18271.706; 0.04997
 712.49;16353.951;  207.616;18372.487; 0.05116
 713.06;16360.390;  215.844;18405.934; 0.05181
 713.63;16321.164;  209.405;18498.382; 0.05505
 714.20;16383.270;  212.300;18556.829; 0.05477
 714.78;16360.043;  209.528;18487.277; 0.05374
 715.35;16374.483;  205.756;18407.724; 0.05144
 715.92;16334.923;  207.317;18351.838; 0.05118
 716.49;16328.029;  222.545;18343.285; 0.05120
 717.06;16303.136;  226.106;18273.400; 0.05021
 717.63;16197.576;  217.334;18198.847; 0.05124
 718.20;16157.349;  210.895;18175.294; 0.05175
 718.77;16094.789;  224.790;18170.075; 0.05337
 719.35;16160.228;  226.351;18153.189; 0.05118
 719.92;16004.002;  211.913;18038.303; 0.05262
 720.49;15970.775;  197.474;17879.084; 0.04960
 721.06;15799.881;  177.369;17774.532; 0.05169
 721.63;15847.988;  190.930;17799.979; 0.05103
 722.20;15866.761;  195.825;17861.426; 0.05203
 722.77;15908.867;  203.386;17825.540; 0.05001
 723.34;15899.641;  196.947;17821.321; 0.05014
 723.91;15784.747;  205.509;17813.102; 0.05315
 724.48;15778.854;  222.070;17777.883; 0.05250
 725.05;15739.627;  212.964;17617.997; 0.04960
 725.62;15737.400;  195.192;17490.778; 0.04642
 726.20;15610.173;  186.754;17461.892; 0.04924
 726.77;15581.280;  192.982;17446.339; 0.04968
 727.34;15603.053;  199.210;17412.787; 0.04824
 727.91;15614.826;  209.104;17361.567; 0.04664
 728.48;15557.932;  214.999;17354.015; 0.04808
 729.05;15474.372;  215.560;17353.795; 0.05045
 729.62;15505.145;  192.788;17320.910; 0.04867
 730.19;15489.252;  185.683;17297.024; 0.04849
 730.76;15563.358;  188.578;17324.138; 0.04709
 731.33;15509.798;  211.472;17306.252; 0.04822
 731.90;15448.905;  215.034;17274.033; 0.04914
 732.47;15357.678;  206.261;17242.147; 0.05091
 733.04;15336.451;  191.156;17245.594; 0.05156
 733.61;15352.891;  168.051;17256.042; 0.05128
 734.18;15354.664;  173.945;17191.156; 0.04960
 734.75;15284.104;  184.507;17077.270; 0.04874
 735.32;15223.210;  211.401;16955.384; 0.04743
 735.89;15169.984;  203.963;16851.831; 0.04625
 736.46;15095.757;  212.191;16734.945; 0.04538
 737.03;15051.863;  203.085;16674.393; 0.04504
 737.60;14952.636;  203.647;16580.840; 0.04548
 738.17;14919.410;  173.208;16558.621; 0.04578
 738.74;14758.183;  184.103;16523.735; 0.04966
 739.31;14725.289;  185.331;16430.849; 0.04817
 739.88;14670.062;  195.225;16300.630; 0.04636
 740.45;14694.502;  176.120;16234.411; 0.04378
 741.02;14631.275;  174.348;16293.858; 0.04728
 741.59;14633.382;  171.909;16337.305; 0.04837
 742.15;14724.488;  177.804;16325.753; 0.04535
 742.72;14744.261;  185.365;16376.867; 0.04616
 743.29;14739.368;  187.593;16351.648; 0.04563
 743.86;14603.808;  195.154;16298.095; 0.04828
 744.43;14623.581;  197.049;16220.543; 0.04560
 745.00;14698.354;  201.277;16240.323; 0.04390
 745.57;14751.461;  209.172;16261.771; 0.04291
 746.14;14726.900;  201.733;16198.552; 0.04191
 746.71;14667.340;  208.294;16179.666; 0.04320
 747.28;14694.113;  196.522;16170.446; 0.04212
 747.85;14732.220;  172.417;16124.227; 0.03965
 748.42;14687.326;  173.645;16103.675; 0.04044
 748.98;14651.766;  177.206;16075.455; 0.04074
 749.55;14585.539;  197.767;16011.569; 0.04104
 750.12;14514.313;  197.662;16015.683; 0.04331
 750.69;14422.086;  204.890;15955.131; 0.04447
 751.26;14346.192;  216.118;15910.245; 0.04559
 751.83;14315.299;  206.013;15821.026; 0.04404
 752.40;14298.739;  204.907;15769.807; 0.04312
 752.97;14325.845;  192.802;15780.587; 0.04255
 753.53;14326.285;  195.697;15773.035; 0.04233
 754.10;14293.058;  187.925;15706.815; 0.04148
 754.67;14224.498;  185.486;15666.263; 0.04246
 755.24;14144.271;  192.714;15616.044; 0.04356
 755.81;14182.044;  200.608;15583.491; 0.04149
 756.38;14148.151;  223.503;15510.272; 0.04053
 756.94;14090.257;  215.064;15482.386; 0.04152
 757.51;13906.697;  204.292;15502.833; 0.04785
 758.08;13838.804;  196.520;15545.281; 0.05119
 758.65;13794.577;  213.748;15443.728; 0.04977
 759.22;13824.350;  220.643;15351.176; 0.04620
 759.79;13730.790;  205.538;15180.623; 0.04422
 760.35;13618.896;  191.432;15130.404; 0.04633
 760.92;13478.336;  201.994;14987.518; 0.04676
 761.49;13382.776;  208.555;14849.965; 0.04586
 762.06;13392.549;  211.783;14641.079; 0.03930
 762.63;13320.322;  201.011;14500.527; 0.03741
 763.19;13215.095;  203.239;14469.641; 0.03998
 763.76;13024.868;  215.133;14423.422; 0.04500
 764.33;12903.975;  219.695;14294.202; 0.04517
 764.90;12765.748;  218.589;14107.650; 0.04413
 765.46;12651.521;  197.817;13914.097; 0.04194
 766.03;12516.961;  196.045;13749.878; 0.04142
 766.60;12424.401;  197.940;13624.992; 0.04068
 767.17;12291.507;  205.501;13465.773; 0.04027
 767.73;12168.947;  207.063;13413.220; 0.04298
 768.30;11950.720;  206.624;13205.001; 0.04407
 768.87;11828.160;  215.185;13045.782; 0.04330
 769.44;11615.933;  213.413;12836.229; 0.04416
 770.00;11479.373;  215.975;12686.677; 0.04422
 770.57;11273.480;  216.536;12525.791; 0.04660
 771.14;11121.253;  213.430;12350.238; 0.04637
 771.71;10963.359;  198.325;12122.686; 0.04442
 772.27;10770.466;  206.220;11935.800; 0.04544
 772.84;10655.572;  209.448;11715.914; 0.04199
 773.41;10565.346;  213.676;11595.695; 0.04121
 773.97;10430.785;  205.904;11440.809; 0.04091
 774.54;10260.559;  213.798;11314.923; 0.04334
 775.11;10058.998;  232.360;11227.370; 0.04879
 775.67; 9917.438;  228.588;11074.818; 0.04901
 776.24; 9806.211;  222.482;10902.265; 0.04703
 776.81; 9723.651;  220.377;10665.712; 0.04105
 777.38; 9619.424;  208.272;10484.160; 0.03818
 777.94; 9480.198;  214.166;10350.941; 0.03901
 778.51; 9357.304;  199.728;10214.721; 0.03887
 779.08; 9298.411;  210.622;10137.835; 0.03837
 779.64; 9245.850;  201.517;10058.283; 0.03736
 780.21; 9093.957;  202.745; 9970.064; 0.04081
 780.78; 8977.730;  211.639; 9870.178; 0.04211
 781.34; 8836.837;  212.534; 9787.625; 0.04542
 781.91; 8819.943;  225.762; 9703.406; 0.04250
 782.47; 8772.383;  227.990; 9633.520; 0.04170
 783.04; 8710.489;  238.551; 9482.634; 0.03788
 783.61; 8603.263;  245.779; 9385.415; 0.03885
 784.17; 8463.369;  246.674; 9320.196; 0.04308
 784.74; 8371.142;  236.569; 9240.310; 0.04409
 785.31; 8330.582;  244.797; 9256.090; 0.04706
 785.87; 8319.022;  248.691; 9137.538; 0.04195
 786.44; 8313.462;  252.252; 9126.319; 0.04172
 787.00; 8293.568;  239.480; 9065.766; 0.03976
 787.57; 8269.675;  222.375; 9005.880; 0.03802
 788.14; 8248.781;  242.936; 8941.661; 0.03605
 788.70; 8193.221;  252.831; 8828.442; 0.03342
 789.27; 8168.327;  261.392; 8880.222; 0.03744
 789.83; 8069.101;  247.620; 8836.003; 0.04062
 790.40; 8047.874;  230.182; 8838.117; 0.04182
 790.96; 7985.647;  235.076; 8799.898; 0.04338
 791.53; 8039.753;  229.304; 8766.679; 0.03865
 792.10; 8002.527;  224.866; 8777.126; 0.04123
 792.66; 8014.300;  219.094; 8720.574; 0.03767
 793.23; 7964.406;  214.988; 8733.688; 0.04110
 793.79; 7964.846;  216.216; 8675.468; 0.03811
 794.36; 7959.953;  210.777; 8660.249; 0.03757
 794.92; 7849.392;  219.339; 8606.363; 0.04108
 795.49; 7845.166;  232.233; 8532.811; 0.03756
 796.05; 7780.272;  243.461; 8505.258; 0.03989
 796.62; 7792.712;  248.023; 8527.372; 0.04035
 797.19; 7729.152;  237.917; 8507.820; 0.04295
 797.75; 7690.592;  226.145; 8453.600; 0.04227
 798.32; 7715.031;  218.373; 8393.714; 0.03764
 798.88; 7675.805;  222.601; 8383.829; 0.03941
 799.45; 7736.578;  224.829; 8436.276; 0.03868
 800.01; 7828.351;  220.391; 8517.723; 0.03767
 800.58; 8071.124;  215.952; 8677.504; 0.03229
 801.14; 8284.231;  222.513; 8916.952; 0.03281
 801.71; 8514.670;  218.074; 9117.399; 0.03046
 802.27; 8701.777;  206.969; 9310.180; 0.03004
 802.84; 8892.883;  188.864; 9480.294; 0.02836
 803.40; 9105.657;  179.758; 9723.075; 0.02905
 803.96; 9311.096;  198.986;10006.189; 0.03193
 804.53; 9680.536;  210.548;10273.303; 0.02637
 805.09; 9961.976;  208.442;10576.417; 0.02653
 805.66;10298.083;  200.670;10926.198; 0.02621
 806.22;10534.522;  172.898;11264.978; 0.02959
 806.79;10897.296;  185.793;11622.426; 0.02845
 807.35;11274.069;  182.354;11886.873; 0.02335
 807.92;11548.842;  214.582;12161.654; 0.02287
 808.48;11812.282;  221.810;12436.768; 0.02279
 809.05;12041.388;  217.705;12708.882; 0.02385
 809.61;12317.495;  213.933;13054.330; 0.02567
 810.17;12621.934;  218.827;13355.110; 0.02494
 810.74;12904.041;  231.055;13671.891; 0.02555
 811.30;13231.147;  226.617;13899.672; 0.02177
 811.87;13471.921;  214.511;14212.453; 0.02361
 812.43;13794.694;  214.406;14571.233; 0.02415
 812.99;14148.800;  216.967;14881.014; 0.02225
 813.56;14526.573;  221.862;15191.462; 0.01973
 814.12;14843.347;  221.090;15523.909; 0.01976
 814.69;15063.120;  216.318;15866.356; 0.02288
 815.25;15328.560;  210.213;16143.804; 0.02281
 815.81;15590.999;  200.774;16302.251; 0.01962
 816.38;15867.439;  196.335;16642.699; 0.02097
 816.94;16202.546;  193.897;16882.479; 0.01806
 817.51;16495.319;  192.791;17283.594; 0.02051
 818.07;16784.759;  201.019;17504.374; 0.01845
 818.63;16957.199;  202.247;17804.155; 0.02142
 819.20;17143.972;  201.808;18033.936; 0.02223
 819.76;17342.078;  209.370;18216.050; 0.02161
 820.32;17499.185;  216.598;18394.831; 0.02194
 820.89;17677.291;  218.159;18583.278; 0.02197
 821.45;17808.398;  193.387;18775.726; 0.02322
 822.01;17889.838;  176.615;18965.173; 0.02560
 822.58;17963.611;  180.843;19065.620; 0.02611
 823.14;18055.384;  194.404;19233.068; 0.02773
 823.70;18272.490;  202.299;19352.182; 0.02520
 824.27;18297.597;  193.194;19462.963; 0.02709
 824.83;18389.037;  215.421;19467.743; 0.02504
 825.39;18232.810;  215.649;19374.524; 0.02668
 825.95;18237.916;  221.211;19316.972; 0.02526
 826.52;18022.690;  191.105;19274.752; 0.02947
 827.08;17895.129;  189.000;19152.200; 0.02979
 827.64;17624.236;  175.895;18949.314; 0.03179
 828.21;17364.009;  175.123;18660.095; 0.03157
 828.77;17112.116;  181.351;18397.542; 0.03178
 829.33;16885.222;  183.579;18029.323; 0.02878
 829.89;16660.328;  181.807;17638.104; 0.02503
 830.46;16396.768;  185.701;17297.218; 0.02348
 831.02;16128.208;  190.596;16895.332; 0.02042
 831.58;15698.315;  201.157;16540.779; 0.02299
 832.15;15241.754;  185.052;16128.893; 0.02486
 832.71;14740.528;  188.280;15811.341; 0.03084
 833.27;14293.301;  178.841;15353.455; 0.03145
 833.83;13859.741;  169.736;14940.569; 0.03300
 834.39;13412.847;  164.297;14394.016; 0.03103
 834.96;12961.954;  162.192;13925.464; 0.03152
 835.52;12546.060;  187.086;13474.578; 0.03146
 836.08;12131.167;  188.981;13047.025; 0.03209
 836.64;11775.273;  194.876;12619.473; 0.03056
 837.21;11375.713;  198.770;12148.920; 0.02905
 837.77;10964.486;  198.332;11759.367; 0.03094
 838.33;10561.259;  206.893;11447.148; 0.03565
 838.89;10169.366;  203.121;11001.596; 0.03483
 839.45; 9802.806;  205.349;10589.710; 0.03422
 840.02; 9488.912;  209.910;10134.490; 0.02921
 840.58; 9145.352;  201.805; 9836.938; 0.03235
 841.14; 8813.125;  224.699; 9457.052; 0.03140
 841.70; 8427.232;  220.594; 9049.833; 0.03176
 842.26; 8038.005;  218.155; 8613.280; 0.03083
 842.82; 7672.445;  209.050; 8233.061; 0.03146
 843.39; 7234.884;  200.278; 7802.175; 0.03368
 843.95; 6886.658;  213.839; 7446.956; 0.03502
 844.51; 6511.764;  213.734; 7076.737; 0.03731
 845.07; 6311.204;  223.295; 6751.184; 0.03030
 845.63; 6069.977;  228.523; 6447.965; 0.02723
 846.19; 5859.750;  213.418; 6205.745; 0.02583
 846.75; 5636.190;  212.646; 6042.860; 0.03140
 847.32; 5427.297;  191.874; 5828.307; 0.03205
 847.88; 5257.070;  198.435; 5647.088; 0.03226
 848.44; 5084.510;  182.996; 5418.202; 0.02860
 849.00; 4927.616;  188.224; 5206.649; 0.02484
 849.56; 4798.056;  183.119; 5035.763; 0.02181
 850.12; 4647.162;  176.680; 4913.211; 0.02511
 850.68; 4566.602;  181.908; 4877.325; 0.02973
 851.24; 4513.709;  184.136; 4806.439; 0.02841
 851.80; 4507.815;  199.364; 4790.220; 0.02757
 852.37; 4475.922;  196.592; 4731.334; 0.02518
 852.93; 4400.361;  204.820; 4729.448; 0.03279
 853.49; 4364.801;  212.715; 4650.895; 0.02894
 854.05; 4312.908;  223.943; 4597.676; 0.02924
 854.61; 4296.681;  224.171; 4520.790; 0.02326
 855.17; 4274.787;  234.066; 4501.904; 0.02375
 855.73; 4262.561;  222.627; 4484.352; 0.02321
 856.29; 4269.667;  213.855; 4475.132; 0.02146
 856.85; 4297.107;  192.749; 4517.913; 0.02276
 857.41; 4374.880;  203.644; 4600.027; 0.02283
 857.97; 4419.987;  205.205; 4760.141; 0.03371
 858.53; 4554.760;  207.433; 4902.255; 0.03340
 859.09; 4718.533;  192.328; 5028.370; 0.02876
 859.65; 4954.973;  184.889; 5166.484; 0.01884
 860.21; 5209.079;  182.451; 5403.598; 0.01649
 860.77; 5444.186;  179.679; 5685.045; 0.01943
 861.33; 5778.292;  189.573; 6014.826; 0.01800
 861.89; 6015.732;  205.135; 6331.273; 0.02297
 862.45; 6375.505;  215.363; 6656.387; 0.01936
 863.01; 6672.612;  205.924; 6960.168; 0.01889
 863.57; 7062.052;  191.152; 7240.949; 0.01116
 864.13; 7371.825;  180.713; 7598.730; 0.01349
 864.69; 7711.265;  188.608; 7928.510; 0.01236
 865.25; 8034.704;  208.502; 8274.958; 0.01313
 865.81; 8362.478;  215.730; 8598.739; 0.01242
 866.37; 8657.251;  213.625; 8883.853; 0.01150
 866.93; 8936.024;  200.853; 9198.967; 0.01288
 867.49; 9208.464;  216.081; 9536.081; 0.01554
 868.05; 9492.237;  210.642; 9849.195; 0.01639
 868.61; 9829.677;  206.870;10116.309; 0.01275
 869.17;10140.450;  185.765;10306.090; 0.00717
 869.73;10380.556;  202.660;10652.537; 0.01145
 870.29;10649.996;  209.554;10985.985; 0.01376
 870.85;10964.103;  212.115;11316.099; 0.01399
 871.41;11372.209;  192.010;11700.213; 0.01256
 871.97;11708.316;  179.571;12032.994; 0.01206
 872.53;12073.089;  184.799;12414.108; 0.01228
 873.09;12459.862;  192.361;12748.222; 0.01009
 873.65;12794.969;  202.922;13125.336; 0.01125
 874.20;13213.075;  204.150;13530.783; 0.01048
 874.76;13498.408;  206.483;13844.450; 0.01116
 875.32;13839.408;  199.150;14344.450; 0.01579
 875.88;14164.742;  204.817;14722.117; 0.01700
 876.44;14575.408;  218.150;15059.450; 0.01440
 877.00;14987.742;  218.150;15358.117; 0.01076
 877.56;15335.075;  215.483;15696.450; 0.01026
 878.12;15632.408;  204.483;16104.450; 0.01309
 878.68;15857.075;  211.817;16344.450; 0.01332
 879.23;16040.408;  207.150;16637.783; 0.01608
 879.79;16224.408;  220.483;16875.783; 0.01733
 880.35;16505.408;  205.150;17127.117; 0.01626
 880.91;16788.075;  192.150;17367.783; 0.01491
 881.47;17020.408;  175.817;17611.783; 0.01499
 882.03;17276.742;  191.483;17929.783; 0.01629
 882.59;17526.075;  204.150;18199.450; 0.01656
 883.14;17845.408;  217.150;18423.117; 0.01400
 883.70;17922.742;  220.150;18492.117; 0.01375
 884.26;18029.408;  217.483;18606.117; 0.01384
 884.82;17977.408;  200.150;18627.783; 0.01560
 885.38;17974.742;  184.483;18693.783; 0.01721
 885.94;17963.742;  186.817;18692.783; 0.01746
 886.49;17915.742;  200.150;18759.783; 0.02021
 887.05;17878.408;  192.817;18819.450; 0.02251
 887.61;17795.742;  182.817;18766.450; 0.02330
 888.17;17832.408;  175.817;18655.450; 0.01979
 888.73;17773.742;  189.483;18492.450; 0.01740
 889.28;17541.742;  190.150;18251.117; 0.01740
 889.84;17315.742;  191.817;18020.450; 0.01751
 890.40;17185.075;  194.817;17792.450; 0.01525
 890.96;17012.742;  199.483;17628.450; 0.01562
 891.51;16870.075;  189.483;17470.117; 0.01535
 892.07;16664.742;  183.817;17244.117; 0.01501
 892.63;16562.408;  190.483;17036.783; 0.01240
 893.19;16376.408;  200.817;16880.117; 0.01332
 893.74;16218.742;  215.150;16772.783; 0.01478
 894.30;16053.408;  206.150;16671.450; 0.01662
 894.86;15906.742;  185.150;16510.450; 0.01636
 895.42;15835.742;  176.483;16397.450; 0.01531
 895.97;15741.408;  175.150;16362.450; 0.01699
 896.53;15646.742;  203.817;16299.450; 0.01798
 897.09;15543.408;  212.817;16258.117; 0.01979
 897.65;15479.408;  225.483;16079.783; 0.01677
 898.20;15537.742;  228.483;15994.117; 0.01276
 898.76;15512.408;  215.150;15888.117; 0.01054
 899.32;15467.075;  215.483;15824.450; 0.01006
 899.87;15330.075;  206.483;15765.117; 0.01232
 900.43;15214.742;  206.150;15631.783; 0.01190
 900.99;15092.075;  194.483;15508.450; 0.01197
 901.54;14901.408;  181.150;15319.450; 0.01216
 902.10;14657.408;  193.150;15133.117; 0.01405
 902.66;14414.742;  208.483;14918.117; 0.01512
 903.21;14231.075;  221.817;14754.117; 0.01592
 903.77;14087.742;  229.483;14588.450; 0.01541
 904.33;13994.408;  209.483;14443.783; 0.01393
 904.88;13862.408;  198.150;14329.783; 0.01461
 905.44;13792.408;  177.150;14293.450; 0.01569
 906.00;13790.742;  191.150;14324.117; 0.01671
 906.55;13697.075;  207.483;14294.117; 0.01881
 907.11;13580.408;  214.150;14239.117; 0.02089
 907.67;13325.075;  205.817;14016.117; 0.02229
 908.22;13283.408;  196.150;13855.783; 0.01859
 908.78;13211.408;  187.817;13715.783; 0.01650
 909.33;13133.075;  195.483;13616.783; 0.01594
 909.89;13028.075;  192.150;13488.783; 0.01531
 910.45;12993.075;  201.150;13406.783; 0.01382
 911.00;12976.408;  191.483;13362.117; 0.01291
 911.56;12849.742;  203.817;13272.117; 0.01427
 912.12;12637.742;  208.483;13101.117; 0.01590
 912.67;12563.742;  221.483;12951.117; 0.01342
 913.23;12431.742;  194.150;12807.450; 0.01313
 913.78;12289.408;  178.483;12651.783; 0.01280
 914.34;12163.408;  201.483;12642.117; 0.01704
 914.89;12063.408;  216.483;12543.117; 0.01724
 915.45;12042.408;  227.150;12558.117; 0.01855
 916.01;11869.742;  195.483;12386.117; 0.01880
 916.56;11812.408;  201.483;12282.450; 0.01723
 917.12;11665.408;  196.817;12063.117; 0.01481
 917.67;11596.075;  195.483;11981.117; 0.01443
 918.23;11430.408;  182.817;11944.450; 0.01941
 918.78;11348.075;  186.483;11927.117; 0.02197
 919.34;11188.075;  188.817;11843.783; 0.02515
 919.89;11078.408;  199.150;11694.117; 0.02391
 920.45;10984.408;  185.817;11531.783; 0.02147
 921.00;10853.075;  168.817;11330.783; 0.01900
 921.56;10750.742;  176.150;11296.783; 0.02187
 922.11;10632.075;  175.150;11154.450; 0.02117
 922.67;10598.408;  202.483;11048.450; 0.01841
 923.22;10466.075;  191.150;10815.450; 0.01452
 923.78;10338.408;  202.817;10632.117; 0.01241
 924.33;10113.408;  195.817;10497.117; 0.01649
 924.89; 9965.408;  196.483;10361.117; 0.01724
 925.44; 9749.408;  204.817;10248.117; 0.02212
 926.00; 9650.408;  201.150;10018.783; 0.01661
 926.55; 9426.408;  205.150; 9867.117; 0.02028
 927.11; 9342.408;  188.150; 9720.450; 0.01757
 927.66; 9220.408;  177.817; 9717.117; 0.02322
 928.22; 9227.075;  174.483; 9670.783; 0.02078
 928.77; 9176.408;  190.150; 9636.117; 0.02167
 929.33; 9204.408;  204.150; 9587.783; 0.01812
 929.88; 9253.075;  205.150; 9516.450; 0.01246
 930.43; 9212.742;  182.483; 9493.450; 0.01329
 930.99; 9195.408;  174.817; 9470.117; 0.01303
 931.54; 9110.075;  167.150; 9456.783; 0.01652
 932.10; 9166.742;  190.150; 9473.117; 0.01458
 932.65; 9139.075;  197.150; 9480.117; 0.01626
 933.21; 9153.075;  198.483; 9496.450; 0.01634
 933.76; 9129.075;  187.483; 9472.117; 0.01635
 934.31; 9120.408;  183.150; 9454.117; 0.01592
 934.87; 9110.075;  190.150; 9433.783; 0.01548
 935.42; 9108.742;  199.483; 9431.450; 0.01545
 935.98; 9088.408;  195.483; 9388.450; 0.01441
 936.53; 9061.742;  193.817; 9335.450; 0.01320
 937.08; 8985.408;  191.150; 9347.783; 0.01754
 937.64; 8964.408;  197.817; 9356.783; 0.01902
 938.19; 8995.075;  196.483; 9425.117; 0.02072
 938.74; 9007.075;  199.817; 9340.117; 0.01612
 939.30; 9001.742;  187.150; 9339.783; 0.01634
 939.85; 8929.408;  186.483; 9209.783; 0.01371
 940.40; 8920.075;  173.817; 9251.783; 0.01617
 940.96; 8874.742;  187.150; 9238.450; 0.01781
 941.51; 8822.075;  189.483; 9244.783; 0.02076
 942.06; 8769.408;  197.150; 9160.450; 0.01937
 942.62; 8759.742;  184.817; 9036.783; 0.01381
 943.17; 8717.075;  195.150; 8966.450; 0.01253
 943.72; 8632.408;  180.483; 8903.117; 0.01369
 944.28; 8537.408;  199.483; 8795.117; 0.01322
 944.83; 8498.408;  184.150; 8766.783; 0.01380
 945.38; 8524.408;  194.483; 8735.117; 0.01085
 945.94; 8470.408;  186.483; 8804.450; 0.01717
 946.49; 8430.075;  205.150; 8772.783; 0.01773
 947.04; 8365.742;  208.817; 8738.117; 0.01939
 947.60; 8347.075;  215.150; 8638.117; 0.01527
 948.15; 8275.408;  203.483; 8519.117; 0.01292
 948.70; 8148.408;  212.817; 8413.783; 0.01429
 949.25; 8010.075;  206.150; 8325.117; 0.01719
 949.81; 7882.075;  208.817; 8271.117; 0.02148
 950.36; 7772.742;  198.483; 8157.117; 0.02150
 950.91; 7657.742;  207.150; 8037.783; 0.02161
 951.46; 7524.742;  203.817; 7873.117; 0.02019
 952.02; 7403.742;  207.150; 7734.117; 0.01949
 952.57; 7273.075;  207.150; 7606.450; 0.02002
 953.12; 7209.075;  218.483; 7526.117; 0.01926
 953.67; 7126.742;  218.150; 7443.783; 0.01949
 954.23; 7060.742;  215.817; 7359.450; 0.01855
 954.78; 6977.742;  208.150; 7234.450; 0.01616
 955.33; 6811.742;  218.150; 7119.783; 0.01983
 955.88; 6701.075;  217.150; 6980.117; 0.01830
 956.44; 6583.075;  230.483; 6838.450; 0.01712
 956.99; 6580.075;  228.817; 6737.117; 0.01061
 957.54; 6481.408;  223.817; 6672.783; 0.01308
 958.09; 6469.742;  222.150; 6636.783; 0.01146
 958.64; 6369.075;  206.817; 6607.450; 0.01648
 959.20; 6350.742;  203.483; 6532.450; 0.01265
 959.75; 6254.075;  199.817; 6496.450; 0.01705
 960.30; 6198.075;  218.150; 6441.783; 0.01735
 960.85; 6185.408;  225.150; 6424.450; 0.01708
 961.40; 6189.742;  228.817; 6381.117; 0.01372
 961.95; 6254.742;  231.817; 6360.783; 0.00758
 962.51; 6229.075;  239.483; 6360.117; 0.00940
 963.06; 6246.408;  242.817; 6380.117; 0.00957
 963.61; 6236.742;  234.150; 6314.783; 0.00561
 964.16; 6246.408;  235.150; 6258.450; 0.00087
 964.71; 6216.742;  222.483; 6212.117;-0.00034
 965.26; 6187.742;  213.150; 6253.117; 0.00473
 965.81; 6135.075;  210.817; 6289.117; 0.01115
 966.36; 6111.742;  208.483; 6323.783; 0.01533
 966.92; 6107.408;  216.150; 6305.117; 0.01434
 967.47; 6156.408;  218.483; 6338.117; 0.01309
 968.02; 6178.408;  232.483; 6354.117; 0.01265
 968.57; 6212.742;  234.817; 6375.450; 0.01166
 969.12; 6229.075;  219.817; 6368.783; 0.00998
 969.67; 6281.075;  204.483; 6420.783; 0.00987
 970.22; 6313.408;  194.150; 6469.783; 0.01096
 970.77; 6423.742;  199.817; 6539.117; 0.00798
 971.32; 6509.408;  197.483; 6593.117; 0.00572
 971.87; 6589.075;  198.817; 6693.117; 0.00701
 972.42; 6651.075;  215.150; 6793.117; 0.00948
 972.98; 6711.408;  220.817; 6908.783; 0.01301
 973.53; 6783.075;  231.483; 6996.117; 0.01390
 974.08; 6831.408;  215.483; 7040.450; 0.01351
 974.63; 6876.408;  223.483; 7078.450; 0.01299
 975.18; 6938.742;  218.483; 7103.117; 0.01049
 975.73; 7032.742;  224.817; 7157.450; 0.00788
 976.28; 7072.742;  221.483; 7219.117; 0.00918
 976.83; 7105.075;  221.483; 7315.450; 0.01307
 977.38; 7102.408;  219.483; 7373.783; 0.01679
 977.93; 7142.742;  222.150; 7387.450; 0.01509
 978.48; 7212.408;  228.483; 7365.783; 0.00943
 979.03; 7261.742;  234.817; 7358.117; 0.00592
 979.58; 7281.408;  221.483; 7329.117; 0.00292
 980.13; 7265.408;  207.150; 7367.783; 0.00625
 980.68; 7176.742;  186.483; 7310.450; 0.00823
 981.23; 7126.075;  185.817; 7278.117; 0.00941
 981.78; 7046.742;  207.150; 7207.450; 0.01009
 982.33; 7045.408;  219.150; 7257.117; 0.01326
 982.88; 7058.742;  232.483; 7211.783; 0.00963
 983.43; 7032.408;  218.150; 7145.783; 0.00717
 983.98; 6949.742;  215.150; 6984.117; 0.00221
 984.53; 6827.408;  203.817; 6873.450; 0.00301
 985.08; 6770.742;  209.817; 6835.783; 0.00428
 985.63; 6676.742;  211.150; 6787.117; 0.00735
 986.18; 6632.408;  218.817; 6756.783; 0.00834
 986.73; 6537.742;  218.483; 6610.450; 0.00497
 987.27; 6523.742;  227.483; 6521.117;-0.00018
 987.82; 6452.075;  238.483; 6431.783;-0.00142
 988.37; 6369.742;  243.150; 6400.783; 0.00219
 988.92; 6239.075;  234.150; 6351.117; 0.00803
 989.47; 6115.742;  214.483; 6285.117; 0.01229
 990.02; 6018.075;  208.483; 6199.117; 0.01333
 990.57; 5961.408;  208.150; 6083.117; 0.00909
 991.12; 5894.742;  215.150; 6044.450; 0.01130
 991.67; 5833.408;  213.817; 5969.117; 0.01036
 992.22; 5755.075;  200.483; 5915.450; 0.01236
 992.77; 5669.075;  200.150; 5802.450; 0.01046
 993.31; 5610.742;  204.817; 5735.783; 0.00993
 993.86; 5547.408;  230.483; 5683.783; 0.01100
 994.41; 5516.075;  235.150; 5580.117; 0.00524
 994.96; 5386.742;  226.483; 5473.117; 0.00721
 995.51; 5282.408;  218.817; 5377.783; 0.00810
 996.06; 5143.742;  208.483; 5293.783; 0.01301
 996.61; 5064.742;  222.483; 5201.783; 0.01212
 997.15; 4958.408;  236.150; 5083.450; 0.01135
 997.70; 4864.408;  241.150; 4965.117; 0.00936
 998.25; 4776.408;  247.483; 4873.450; 0.00921
 998.80; 4669.075;  248.483; 4740.117; 0.00692
 999.35; 4505.075;  249.483; 4623.450; 0.01192
 999.90; 4342.408;  236.150; 4455.117; 0.01176
1000.44; 4192.742;  224.483; 4340.450; 0.01587
1000.99; 4106.742;  232.483; 4190.783; 0.00932
1001.54; 4003.742;  237.150; 4067.450; 0.00728
1002.09; 3879.742;  231.817; 3939.117; 0.00701
1002.64; 3777.742;  238.483; 3855.450; 0.00943
1003.18; 3663.742;  240.483; 3766.783; 0.01288
1003.73; 3557.408;  238.483; 3661.450; 0.01341
1004.28; 3449.742;  226.817; 3584.450; 0.01778
1004.83; 3389.075;  209.483; 3488.117; 0.01332
1005.38; 3399.408;  210.150; 3420.783; 0.00290
1005.92; 3333.742;  219.150; 3321.783;-0.00167
1006.47; 3224.408;  236.817; 3231.783; 0.00107
1007.02; 3114.075;  235.483; 3140.117; 0.00391
1007.57; 3049.075;  222.817; 3087.450; 0.00586
1008.11; 2997.742;  211.817; 3028.450; 0.00476
1008.66; 2930.742;  205.150; 2973.450; 0.00675
1009.21; 2852.075;  192.483; 2907.783; 0.00900
1009.75; 2776.742;  177.817; 2862.117; 0.01404
1010.30; 2679.742;  170.150; 2793.117; 0.01919
1010.85; 2615.408;  176.817; 2712.783; 0.01700
1011.40; 2585.408;  204.150; 2628.450; 0.00778
1011.94; 2545.408;  221.817; 2545.783; 0.00007
1012.49; 2487.075;  216.483; 2464.450;-0.00435
1013.04; 2363.742;  194.150; 2362.117;-0.00033
1013.58; 2266.742;  184.150; 2325.117; 0.01201
1014.13; 2199.075;  188.483; 2268.117; 0.01466
1014.68; 2175.075;  196.483; 2233.450; 0.01263
1015.23; 2124.742;  203.150; 2181.450; 0.01263
1015.77; 2057.742;  199.817; 2113.117; 0.01275
1016.32; 1994.742;  204.817; 2072.450; 0.01846
1016.87; 1986.742;  209.483; 2012.783; 0.00632
1017.41; 1946.742;  206.817; 1977.450; 0.00760
1017.96; 1888.075;  194.817; 1953.450; 0.01645
1018.50; 1830.075;  186.483; 1926.450; 0.02475
1019.05; 1782.075;  188.483; 1903.450; 0.03188
1019.60; 1763.408;  182.817; 1815.783; 0.01416
1020.14; 1718.742;  196.150; 1752.783; 0.00960
1020.69; 1674.742;  196.150; 1698.117; 0.00681
1021.24; 1622.408;  209.483; 1650.450; 0.00853
1021.78; 1581.075;  188.483; 1620.450; 0.01211
1022.33; 1525.075;  190.150; 1592.450; 0.02138
1022.87; 1470.742;  182.817; 1587.783; 0.03778
1023.42; 1424.075;  198.150; 1567.117; 0.04793
1023.97; 1400.408;  200.150; 1516.117; 0.03997
1024.51; 1391.075;  212.150; 1465.117; 0.02645
1025.06; 1352.408;  200.483; 1401.117; 0.01799
1025.60; 1344.742;  198.817; 1340.783;-0.00150
1026.15; 1293.408;  181.150; 1307.783; 0.00558
1026.70; 1268.742;  185.483; 1284.783; 0.00638
1027.24; 1241.408;  195.483; 1279.783; 0.01565
1027.79; 1221.408;  200.483; 1270.450; 0.02038
1028.33; 1191.742;  197.483; 1252.450; 0.02574
1028.88; 1153.408;  188.817; 1215.450; 0.02707
1029.42; 1139.075;  208.150; 1198.450; 0.02685
1029.97; 1140.742;  197.817; 1156.450; 0.00718
1030.51; 1121.408;  190.150; 1127.117; 0.00265
1031.06; 1097.408;  182.817; 1088.783;-0.00412
1031.61; 1064.075;  192.483; 1063.117;-0.00048
1032.15; 1066.742;  210.150; 1050.450;-0.00834
1032.70; 1029.408;  202.817; 1024.117;-0.00279
1033.24;  993.742;  206.483; 1018.117; 0.01324
1033.79;  967.742;  200.817; 1020.450; 0.02887
1034.33;  983.742;  199.817; 1016.450; 0.01775
1034.88;  966.408;  201.817; 1008.783; 0.02343
1035.42;  962.408;  202.817;  979.450; 0.00964
1035.97;  951.408;  204.483;  950.450;-0.00056
1036.51;  977.742;  206.483;  931.450;-0.02688
1037.06;  949.742;  200.817;  944.117;-0.00327
1037.60;  938.408;  207.150;  948.783; 0.00612
1038.14;  905.742;  204.150;  928.783; 0.01403
1038.69;  918.408;  222.150;  927.783; 0.00581
1039.23;  922.742;  234.483;  935.783; 0.00815
1039.78;  919.408;  235.150;  948.783; 0.01826
1040.32;  890.408;  224.483;  915.783; 0.01624
1040.87;  870.742;  208.483;  887.117; 0.01061
1041.41;  863.742;  198.150;  864.117; 0.00024
1041.96;  871.742;  200.817;  882.783; 0.00709
1042.50;  868.742;  197.817;  893.117; 0.01550
1043.04;  874.408;  213.817;  899.117; 0.01595
1043.59;  869.408;  217.150;  867.450;-0.00131
1044.13;  855.408;  212.483;  869.450; 0.00938
1044.68;  835.408;  205.817;  862.117; 0.01804
1045.22;  819.742;  199.150;  873.783; 0.03626
1045.76;  824.408;  201.817;  869.450; 0.03033
1046.31;  816.408;  193.483;  861.783; 0.03054
1046.85;  821.408;  200.483;  842.117; 0.01425
1047.40;  810.075;  202.483;  813.783; 0.00264
1047.94;  805.742;  215.150;  808.783; 0.00223
1048.48;  791.408;  211.150;  810.117; 0.01378
1049.03;  790.075;  214.483;  793.450; 0.00254
1049.57;  812.408;  229.150;  787.117;-0.01925
1050.11;  804.742;  222.817;  774.117;-0.02348
1050.66;  788.075;  218.483;  779.117;-0.00688
1051.20;  768.408;  206.483;  794.450; 0.01967
1051.74;  743.075;  200.817;  788.117; 0.03465
1052.29;  721.408;  200.150;  780.783; 0.04685
1052.83;  708.742;  199.150;  748.117; 0.03232
1053.37;  726.408;  224.817;  744.783; 0.01563
1053.92;  732.742;  234.150;  739.783; 0.00609
1054.46;  724.742;  236.483;  734.117; 0.00826
1055.00;  722.075;  231.483;  739.117; 0.01483
1055.55;  729.742;  230.817;  738.117; 0.00723
1056.09;  722.075;  223.817;  747.783; 0.02185
1056.63;  711.742;  215.817;  711.783; 0.00004
1057.17;  685.742;  216.483;  709.117; 0.02111
1057.72;  695.075;  225.150;  697.450; 0.00219
1058.26;  697.742;  223.483;  705.783; 0.00730
1058.80;  717.742;  229.817;  700.450;-0.01567
1059.35;  688.408;  230.483;  686.450;-0.00186
1059.89;  674.742;  230.150;  672.450;-0.00224
1060.43;  656.075;  227.817;  654.783;-0.00131
1060.97;  648.742;  223.817;  667.117; 0.01839
1061.52;  634.742;  231.150;  682.450; 0.04852
1062.06;  624.742;  231.483;  671.450; 0.04874
1062.60;  618.742;  236.483;  658.450; 0.04292
1063.14;  613.408;  232.483;  640.783; 0.03014
1063.69;  600.408;  216.483;  640.117; 0.04274
1064.23;  602.075;  208.817;  619.783; 0.01913
1064.77;  582.408;  200.483;  598.450; 0.01787
1065.31;  586.742;  201.817;  577.450;-0.01061
1065.85;  567.408;  206.483;  567.117;-0.00035
1066.40;  573.408;  205.150;  579.450; 0.00707
1066.94;  563.742;  217.817;  579.117; 0.01889
1067.48;  567.075;  209.150;  587.783; 0.02443
1068.02;  576.075;  233.817;  562.450;-0.01764
1068.56;  569.075;  216.817;  564.783;-0.00532
1069.10;  564.742;  212.817;  549.783;-0.01886
1069.65;  553.075;  195.817;  566.450; 0.01596
1070.19;  554.742;  208.817;  566.783; 0.01486
1070.73;  568.742;  223.817;  582.783; 0.01733
1071.27;  554.075;  215.817;  567.117; 0.01643
1071.81;  540.408;  207.150;  562.117; 0.02741
1072.35;  543.075;  201.817;  549.117; 0.00762
1072.90;  534.408;  197.150;  546.783; 0.01565
1073.44;  539.408;  202.817;  540.117; 0.00091
1073.98;  505.408;  206.150;  531.450; 0.03624
1074.52;  510.742;  224.483;  538.783; 0.04059
1075.06;  506.075;  218.483;  542.450; 0.05172
1075.60;  506.408;  207.483;  531.450; 0.03494
1076.14;  504.742;  204.817;  514.117; 0.01337
1076.68;  496.408;  207.150;  504.450; 0.01191
1077.22;  511.742;  225.817;  504.783;-0.01070
1077.76;  512.075;  214.817;  498.117;-0.02089
1078.31;  523.742;  229.817;  499.783;-0.03693
1078.85;  514.408;  226.483;  517.117; 0.00407
1079.39;  507.742;  243.817;  525.450; 0.02820
1079.93;  502.742;  237.817;  507.783; 0.00819
1080.47;  499.408;  227.483;  476.450;-0.03831
1081.01;  503.075;  216.150;  474.783;-0.04508
1081.55;  495.075;  208.483;  488.783;-0.00964
1082.09;  493.742;  205.817;  488.783;-0.00754
1082.63;  483.408;  210.150;  496.450; 0.02025
1083.17;  483.742;  221.150;  500.783; 0.02731
1083.71;  477.075;  228.817;  501.450; 0.04068
1084.25;  477.742;  224.483;  471.117;-0.01151
1084.79;  470.408;  214.483;  446.450;-0.04269
1085.33;  455.075;  202.817;  450.783;-0.00745
1085.87;  450.408;  199.483;  468.450; 0.03015
1086.41;  432.408;  214.483;  471.450; 0.07157
1086.95;  443.408;  222.150;  467.117; 0.04421
1087.49;  456.408;  225.817;  454.783;-0.00307
1088.03;  477.408;  216.817;  454.117;-0.04066
1088.57;  469.742;  219.817;  450.783;-0.03426
1089.11;  452.742;  222.150;  448.117;-0.00880
1089.65;  459.408;  233.150;  458.783;-0.00120
1090.19;  474.742;  238.483;  468.117;-0.01235
1090.73;  482.075;  240.483;  471.783;-0.01891
1091.27;  471.742;  238.817;  466.117;-0.01062
1091.81;  462.408;  238.483;  458.117;-0.00840
1092.35;  456.408;  247.483;  461.450; 0.01036
1092.89;  444.075;  232.150;  457.450; 0.02658
1093.43;  449.075;  223.817;  445.783;-0.00639
1093.97;  444.408;  210.150;  441.117;-0.00615
1094.51;  441.742;  208.483;  440.450;-0.00241
1095.04;  421.408;  218.483;  442.783; 0.04349
1095.58;  422.742;  238.817;  436.783; 0.03195
1096.12;  438.408;  242.817;  428.783;-0.02192
1096.66;  447.408;  239.817;  430.450;-0.03701
1097.20;  454.742;  235.817;  449.450;-0.01063
1097.74;  449.408;  246.817;  456.783; 0.01553
1098.28;  441.408;  235.817;  457.117; 0.03198
1098.82;  436.408;  230.483;  453.117; 0.03388
1099.36;  424.742;  228.150;  446.450; 0.04549
1099.89;  417.075;  230.150;  447.450; 0.06539

