
Integration time [ms]:   0.300
Averaging Nr. [scans]: 1
Smoothing Nr. [pixels]: 1
Data measured with spectrometer [name]: 1906252U1
Wave   ;Sample   ;Dark     ;Reference;Absorbance
[nm]   ;[counts] ;[counts] ;[counts] ;[A.U]

 161.30;  278.692;  271.207;  271.637; 0.00000
 161.90;  264.733;  265.524;  261.712; 0.00000
 162.51;  268.442;  259.038;  260.433;-0.82897
 163.11;  264.517;  265.693;  251.834; 0.00000
 163.71;  264.149;  276.696;  266.803; 0.00000
 164.31;  258.158;  294.270;  273.488; 0.00000
 164.91;  265.086;  288.393;  287.410; 0.00000
 165.52;  265.948;  277.299;  279.261; 5.00000
 166.12;  269.421;  271.979;  273.718; 5.00000
 166.72;  266.462;  272.971;  259.755; 0.00000
 167.32;  266.410;  271.656;  271.040; 0.00000
 167.93;  260.899;  261.266;  267.518; 5.00000
 168.53;  259.338;  254.112;  260.296; 0.07309
 169.13;  272.630;  264.427;  257.261; 0.00000
 169.73;  281.054;  271.677;  266.351; 0.00000
 170.33;  306.534;  291.614;  320.561; 0.28783
 170.94;  318.597;  317.756;  347.746; 1.55206
 171.54;  337.344;  335.278;  387.239; 1.40064
 172.14;  356.302;  338.926;  375.538; 0.32366
 172.74;  344.955;  324.358;  373.181; 0.37482
 173.34;  338.671;  319.589;  355.569; 0.27545
 173.95;  330.361;  309.596;  343.923; 0.21830
 174.55;  349.999;  318.289;  355.228; 0.06629
 175.15;  343.592;  320.689;  367.155; 0.30724
 175.75;  337.972;  322.370;  380.195; 0.56892
 176.35;  346.133;  332.415;  382.036; 0.55838
 176.95;  365.320;  327.740;  392.907; 0.23907
 177.56;  357.099;  327.608;  398.355; 0.38002
 178.16;  342.384;  316.738;  399.298; 0.50774
 178.76;  342.585;  316.306;  398.487; 0.49517
 179.36;  347.119;  310.874;  401.343; 0.39726
 179.96;  351.595;  304.800;  395.813; 0.28890
 180.56;  349.747;  308.938;  392.969; 0.31368
 181.17;  360.545;  318.009;  403.448; 0.30290
 181.77;  376.272;  318.897;  417.181; 0.23375
 182.37;  371.539;  306.653;  404.111; 0.17667
 182.97;  379.883;  319.309;  413.789; 0.19305
 183.57;  382.376;  323.525;  427.944; 0.24903
 184.17;  407.541;  336.736;  473.104; 0.28465
 184.78;  420.362;  316.624;  484.587; 0.20928
 185.38;  431.937;  315.012;  504.833; 0.21044
 185.98;  463.064;  315.783;  504.638; 0.10798
 186.58;  476.870;  316.598;  510.449; 0.08261
 187.18;  472.762;  313.002;  491.678; 0.04860
 187.78;  455.818;  324.256;  526.070; 0.18582
 188.38;  453.242;  331.840;  541.159; 0.23658
 188.98;  468.948;  337.804;  574.199; 0.25589
 189.59;  488.957;  332.575;  567.529; 0.17680
 190.19;  506.820;  326.870;  580.708; 0.14940
 190.79;  512.378;  326.914;  573.939; 0.12448
 191.39;  502.714;  317.159;  564.285; 0.12445
 191.99;  495.802;  322.498;  545.363; 0.10923
 192.59;  493.040;  317.307;  539.929; 0.10271
 193.19;  481.145;  313.765;  525.712; 0.10252
 193.79;  472.375;  325.164;  530.280; 0.14406
 194.39;  453.103;  328.250;  517.658; 0.18100
 195.00;  454.598;  327.216;  511.139; 0.15953
 195.60;  445.517;  305.566;  480.732; 0.09747
 196.20;  446.582;  304.088;  469.473; 0.06470
 196.80;  412.770;  305.278;  453.989; 0.14097
 197.40;  407.627;  313.686;  455.186; 0.17790
 198.00;  388.891;  320.693;  452.457; 0.28603
 198.60;  379.718;  317.270;  442.943; 0.30372
 199.20;  354.963;  312.435;  427.513; 0.43232
 199.80;  358.881;  303.957;  416.753; 0.31253
 200.40;  362.327;  299.492;  396.868; 0.19025
 201.00;  357.550;  293.841;  371.434; 0.08562
 201.60;  329.515;  292.845;  340.403; 0.11291
 202.21;  330.684;  298.995;  352.240; 0.22537
 202.81;  321.670;  303.760;  367.883; 0.55392
 203.41;  325.384;  301.801;  377.921; 0.50890
 204.01;  314.074;  296.447;  373.611; 0.64124
 204.61;  320.600;  287.965;  374.799; 0.42500
 205.21;  336.474;  280.528;  391.328; 0.29677
 205.81;  337.385;  276.000;  394.567; 0.28590
 206.41;  337.479;  281.190;  389.667; 0.28491
 207.01;  329.985;  291.585;  373.516; 0.32912
 207.61;  317.017;  290.832;  349.221; 0.34828
 208.21;  304.222;  294.007;  340.088; 0.65428
 208.81;  294.182;  285.376;  350.048; 0.86594
 209.41;  305.742;  292.971;  355.294; 0.68842
 210.01;  311.936;  286.985;  361.835; 0.47710
 210.61;  318.429;  290.534;  351.990; 0.34304
 211.21;  311.669;  293.399;  356.219; 0.53636
 211.81;  318.391;  300.157;  352.258; 0.45597
 212.41;  308.312;  301.896;  344.513; 0.82235
 213.01;  318.076;  296.332;  351.625; 0.40533
 213.61;  312.787;  285.263;  357.339; 0.41807
 214.21;  325.869;  282.939;  368.411; 0.29906
 214.81;  310.521;  278.704;  361.387; 0.41476
 215.41;  319.115;  282.466;  362.645; 0.34000
 216.01;  317.324;  278.247;  362.189; 0.33206
 216.61;  324.921;  287.920;  357.792; 0.27610
 217.21;  310.179;  290.599;  357.391; 0.53292
 217.81;  299.926;  297.221;  367.800; 1.41656
 218.41;  302.875;  301.628;  379.081; 1.79317
 219.01;  304.958;  307.801;  388.505; 5.00000
 219.61;  310.359;  301.739;  384.906; 0.98444
 220.21;  317.306;  297.568;  378.507; 0.61286
 220.81;  321.850;  283.737;  372.713; 0.36820
 221.41;  327.827;  284.091;  376.024; 0.32263
 222.01;  319.189;  280.426;  372.049; 0.37358
 222.61;  310.249;  298.953;  367.451; 0.78275
 223.21;  306.549;  301.813;  357.103; 1.06725
 223.81;  315.127;  301.952;  360.676; 0.64905
 224.41;  310.094;  281.875;  343.618; 0.34005
 225.01;  315.735;  269.317;  340.250; 0.18417
 225.61;  297.172;  274.108;  341.033; 0.46265
 226.21;  304.378;  273.112;  349.918; 0.39033
 226.81;  290.631;  286.490;  349.175; 1.18009
 227.41;  299.405;  284.059;  344.282; 0.59375
 228.01;  319.374;  302.172;  351.241; 0.45524
 228.61;  337.621;  306.727;  360.474; 0.24048
 229.21;  349.846;  303.825;  362.700; 0.10697
 229.81;  346.262;  308.998;  372.791; 0.23348
 230.41;  333.867;  299.055;  383.396; 0.38431
 231.01;  331.741;  300.808;  405.942; 0.53132
 231.61;  319.893;  287.307;  401.095; 0.54306
 232.21;  332.630;  300.328;  383.489; 0.41068
 232.81;  332.413;  296.307;  370.928; 0.31528
 233.41;  350.148;  302.578;  372.995; 0.17035
 234.00;  344.727;  298.240;  379.918; 0.24478
 234.60;  340.759;  290.487;  363.623; 0.16280
 235.20;  329.063;  295.152;  359.264; 0.27659
 235.80;  322.566;  295.330;  365.432; 0.41058
 236.40;  326.184;  302.765;  379.044; 0.51284
 237.00;  329.622;  303.584;  384.824; 0.49415
 237.60;  326.772;  294.000;  377.651; 0.40697
 238.20;  332.004;  295.121;  389.214; 0.40673
 238.80;  317.471;  274.112;  389.668; 0.42571
 239.40;  324.221;  279.177;  403.402; 0.44057
 240.00;  320.792;  284.599;  402.640; 0.51341
 240.59;  334.448;  298.133;  401.312; 0.45350
 241.19;  329.543;  297.989;  399.745; 0.50851
 241.79;  333.182;  288.710;  384.715; 0.33420
 242.39;  337.381;  292.222;  383.909; 0.30756
 242.99;  332.589;  286.642;  375.121; 0.28458
 243.59;  308.218;  289.230;  388.763; 0.71947
 244.19;  295.689;  286.160;  385.560; 1.01834
 244.79;  316.795;  287.511;  384.652; 0.52078
 245.39;  329.699;  287.293;  395.554; 0.40705
 245.98;  339.931;  273.053;  391.453; 0.24807
 246.58;  318.426;  274.487;  389.290; 0.41710
 247.18;  328.825;  285.342;  384.364; 0.35741
 247.78;  329.228;  295.696;  398.758; 0.48763
 248.38;  349.969;  288.656;  421.162; 0.33468
 248.98;  338.445;  277.356;  419.988; 0.36825
 249.58;  344.795;  265.673;  430.671; 0.31918
 250.17;  342.647;  275.285;  426.842; 0.35216
 250.77;  354.104;  283.143;  431.967; 0.32166
 251.37;  328.880;  286.929;  425.089; 0.51764
 251.97;  323.606;  270.293;  429.805; 0.47596
 252.57;  316.027;  265.298;  436.882; 0.52922
 253.17;  340.640;  272.929;  449.172; 0.41545
 253.77;  352.421;  284.186;  466.282; 0.42629
 254.36;  353.261;  295.474;  468.774; 0.47697
 254.96;  346.385;  295.333;  480.567; 0.55971
 255.56;  320.119;  288.604;  484.301; 0.79306
 256.16;  321.669;  278.462;  506.509; 0.72247
 256.76;  300.601;  277.524;  496.109; 0.97644
 257.36;  313.433;  276.735;  508.603; 0.80060
 257.95;  315.881;  264.992;  503.713; 0.67127
 258.55;  329.580;  264.239;  518.084; 0.58939
 259.15;  339.620;  260.564;  510.454; 0.49981
 259.75;  333.829;  269.345;  523.998; 0.59650
 260.35;  328.121;  267.461;  538.318; 0.64984
 260.94;  311.210;  268.819;  539.764; 0.80560
 261.54;  318.890;  275.530;  547.771; 0.79787
 262.14;  334.229;  279.723;  553.422; 0.70083
 262.74;  349.323;  296.084;  592.169; 0.74519
 263.34;  329.752;  285.302;  604.600; 0.85632
 263.93;  323.025;  271.414;  619.201; 0.82857
 264.53;  320.606;  269.158;  628.783; 0.84448
 265.13;  337.377;  270.950;  628.566; 0.73107
 265.73;  336.283;  275.426;  648.466; 0.78745
 266.33;  346.223;  278.566;  678.397; 0.77156
 266.92;  344.174;  275.029;  689.673; 0.77791
 267.52;  357.224;  279.954;  705.726; 0.74117
 268.12;  353.096;  273.264;  717.281; 0.74522
 268.72;  363.647;  281.951;  749.175; 0.75733
 269.31;  368.640;  293.596;  782.505; 0.81391
 269.91;  360.495;  296.813;  783.686; 0.88340
 270.51;  357.573;  298.884;  823.747; 0.95149
 271.11;  350.519;  296.018;  844.685; 1.00291
 271.70;  354.844;  281.274;  877.686; 0.90884
 272.30;  357.732;  270.568;  887.924; 0.85020
 272.90;  360.558;  264.784;  909.412; 0.82806
 273.50;  373.681;  274.785;  916.521; 0.81218
 274.09;  364.023;  285.359;  947.539; 0.92520
 274.69;  355.827;  293.425;  961.690; 1.02975
 275.29;  346.851;  297.126; 1011.041; 1.15707
 275.89;  362.998;  301.162; 1057.168; 1.08728
 276.48;  378.545;  306.441; 1108.365; 1.04618
 277.08;  385.853;  303.217; 1149.330; 1.01026
 277.68;  397.777;  300.562; 1156.928; 0.94493
 278.28;  391.914;  297.934; 1188.748; 0.97675
 278.87;  415.377;  305.120; 1219.213; 0.91859
 279.47;  433.860;  316.402; 1279.019; 0.91357
 280.07;  453.713;  311.564; 1306.537; 0.84507
 280.66;  455.644;  305.599; 1329.806; 0.83416
 281.26;  472.115;  299.502; 1356.605; 0.78704
 281.86;  483.975;  299.353; 1408.460; 0.77869
 282.46;  486.177;  289.111; 1464.667; 0.77563
 283.05;  475.693;  270.001; 1525.842; 0.78572
 283.65;  482.100;  269.267; 1577.248; 0.78856
 284.25;  487.859;  276.537; 1628.707; 0.80608
 284.84;  508.624;  297.639; 1660.819; 0.81030
 285.44;  529.171;  304.585; 1722.349; 0.80022
 286.04;  542.126;  306.626; 1767.304; 0.79256
 286.63;  550.359;  299.604; 1827.551; 0.78486
 287.23;  576.061;  285.934; 1878.582; 0.73953
 287.83;  603.127;  285.987; 1956.635; 0.72163
 288.42;  611.961;  282.947; 2012.456; 0.72071
 289.02;  607.519;  281.018; 2081.351; 0.74147
 289.62;  628.852;  274.153; 2105.373; 0.71288
 290.21;  650.694;  278.965; 2173.882; 0.70736
 290.81;  692.325;  296.139; 2171.832; 0.67526
 291.41;  712.437;  301.675; 2217.279; 0.66872
 292.00;  733.081;  287.695; 2273.257; 0.64915
 292.60;  739.073;  266.816; 2355.570; 0.64571
 293.20;  751.450;  269.053; 2441.953; 0.65363
 293.79;  771.689;  275.331; 2498.541; 0.65119
 294.39;  813.268;  284.326; 2544.463; 0.63073
 294.99;  833.909;  280.435; 2588.095; 0.62007
 295.58;  879.122;  284.687; 2619.961; 0.59423
 296.18;  893.399;  271.100; 2672.236; 0.58642
 296.78;  934.354;  267.474; 2741.524; 0.56936
 297.37;  961.737;  256.039; 2819.912; 0.56028
 297.97;  990.935;  255.858; 2927.442; 0.56044
 298.57; 1031.714;  262.727; 2989.557; 0.54974
 299.16; 1058.930;  278.359; 3083.789; 0.55559
 299.76; 1096.172;  281.775; 3176.366; 0.55075
 300.35; 1121.515;  281.214; 3269.362; 0.55097
 300.95; 1162.276;  278.404; 3324.462; 0.53735
 301.55; 1210.312;  287.229; 3346.846; 0.52043
 302.14; 1250.824;  278.314; 3431.366; 0.51084
 302.74; 1292.321;  277.164; 3537.862; 0.50678
 303.33; 1305.041;  277.506; 3665.575; 0.51816
 303.93; 1358.744;  284.053; 3763.621; 0.51024
 304.53; 1403.528;  290.889; 3809.743; 0.50005
 305.12; 1476.865;  285.666; 3889.067; 0.48073
 305.72; 1499.216;  304.345; 3962.749; 0.48597
 306.31; 1522.621;  292.556; 4062.826; 0.48644
 306.91; 1559.700;  290.122; 4183.574; 0.48668
 307.51; 1616.865;  280.000; 4278.734; 0.47583
 308.10; 1680.515;  295.710; 4394.048; 0.47122
 308.70; 1699.533;  291.190; 4468.751; 0.47221
 309.29; 1724.924;  287.634; 4547.826; 0.47188
 309.89; 1757.786;  264.902; 4638.675; 0.46683
 310.48; 1834.555;  273.673; 4739.754; 0.45656
 311.08; 1911.916;  268.620; 4876.118; 0.44775
 311.68; 1952.166;  273.221; 4959.384; 0.44578
 312.27; 2015.066;  278.703; 5074.278; 0.44120
 312.87; 2066.977;  271.869; 5225.848; 0.44086
 313.46; 2122.474;  276.691; 5385.013; 0.44210
 314.06; 2152.685;  276.193; 5529.885; 0.44712
 314.65; 2197.031;  282.238; 5632.559; 0.44626
 315.25; 2261.733;  283.262; 5774.255; 0.44332
 315.85; 2345.688;  277.637; 5914.876; 0.43551
 316.44; 2411.417;  287.913; 6071.938; 0.43518
 317.04; 2510.803;  295.255; 6216.984; 0.42697
 317.63; 2608.484;  310.823; 6400.341; 0.42330
 318.23; 2680.090;  298.737; 6546.296; 0.41889
 318.82; 2713.685;  293.221; 6674.883; 0.42104
 319.42; 2714.354;  273.276; 6781.545; 0.42588
 320.01; 2790.107;  280.055; 6929.646; 0.42311
 320.61; 2874.461;  290.511; 7164.652; 0.42493
 321.20; 2993.773;  285.758; 7272.939; 0.41165
 321.80; 3045.204;  292.860; 7497.718; 0.41792
 322.39; 3091.666;  275.154; 7636.540; 0.41725
 322.99; 3139.009;  275.755; 7857.556; 0.42291
 323.58; 3208.336;  286.597; 7977.531; 0.42034
 324.18; 3273.492;  287.901; 8124.673; 0.41911
 324.77; 3325.823;  292.485; 8318.013; 0.42255
 325.37; 3387.642;  278.984; 8442.167; 0.41929
 325.96; 3482.440;  276.253; 8588.958; 0.41375
 326.56; 3551.242;  298.768; 8771.095; 0.41579
 327.15; 3618.585;  300.036; 8947.778; 0.41595
 327.75; 3691.675;  300.925; 9129.536; 0.41560
 328.34; 3801.989;  272.723; 9291.838; 0.40748
 328.94; 3894.065;  266.072; 9447.905; 0.40326
 329.53; 3948.703;  277.765; 9658.876; 0.40748
 330.13; 4042.277;  293.098; 9872.460; 0.40740
 330.72; 4091.366;  297.428;10112.576; 0.41281
 331.32; 4203.526;  296.807;10347.750; 0.41039
 331.91; 4254.509;  286.021;10578.045; 0.41388
 332.51; 4378.584;  290.846;10832.428; 0.41142
 333.10; 4477.511;  280.941;11112.686; 0.41180
 333.69; 4551.024;  268.720;11343.870; 0.41267
 334.29; 4575.122;  259.020;11372.294; 0.41075
 334.88; 4561.390;  263.526;11404.218; 0.41366
 335.48; 4580.343;  274.151;11347.513; 0.41019
 336.07; 4627.199;  277.361;11521.065; 0.41244
 336.67; 4664.572;  271.793;11561.792; 0.40995
 337.26; 4702.520;  270.478;11724.744; 0.41236
 337.86; 4743.537;  274.661;11795.073; 0.41127
 338.45; 4826.358;  285.081;11996.201; 0.41142
 339.04; 4883.539;  280.248;12122.714; 0.41037
 339.64; 4952.657;  279.247;12324.855; 0.41119
 340.23; 5012.026;  276.541;12444.594; 0.40986
 340.83; 5099.099;  283.446;12579.002; 0.40709
 341.42; 5116.223;  284.034;12728.085; 0.41082
 342.02; 5163.530;  280.810;12860.717; 0.41102
 342.61; 5165.949;  285.029;12994.842; 0.41564
 343.20; 5294.453;  280.703;13173.363; 0.41018
 343.80; 5359.288;  275.024;13326.514; 0.40943
 344.39; 5452.229;  277.525;13574.777; 0.40988
 344.99; 5503.370;  284.701;13698.586; 0.40999
 345.58; 5571.449;  281.629;13941.331; 0.41200
 346.17; 5656.734;  272.425;14086.941; 0.40921
 346.77; 5693.634;  263.601;14425.499; 0.41632
 347.36; 5743.213;  267.766;14640.403; 0.41912
 347.96; 5808.553;  271.456;14918.073; 0.42246
 348.55; 5932.217;  272.039;15018.413; 0.41586
 349.14; 6022.397;  269.152;15148.264; 0.41266
 349.74; 6069.444;  282.193;15379.635; 0.41643
 350.33; 6127.096;  292.264;15619.281; 0.41943
 350.92; 6222.562;  292.029;15990.758; 0.42277
 351.52; 6359.847;  276.988;16197.719; 0.41786
 352.11; 6418.829;  277.642;16449.038; 0.42050
 352.70; 6497.259;  293.221;16652.467; 0.42109
 353.30; 6604.154;  299.069;16923.354; 0.42105
 353.89; 6693.288;  289.556;17199.826; 0.42172
 354.49; 6800.247;  295.537;17471.125; 0.42168
 355.08; 6851.700;  303.789;17648.240; 0.42306
 355.67; 6968.672;  306.509;17850.877; 0.42052
 356.27; 7063.549;  292.678;18013.082; 0.41783
 356.86; 7118.182;  288.376;18230.048; 0.41945
 357.45; 7236.465;  297.756;18507.331; 0.41902
 358.05; 7284.422;  297.214;18684.613; 0.42022
 358.64; 7351.105;  292.504;18894.298; 0.42084
 359.23; 7385.630;  289.300;19081.825; 0.42295
 359.83; 7449.524;  289.121;19433.380; 0.42710
 360.42; 7560.070;  293.174;19722.600; 0.42711
 361.01; 7626.298;  287.355;19981.487; 0.42870
 361.61; 7713.355;  287.502;20183.522; 0.42802
 362.20; 7784.886;  294.987;20496.718; 0.43091
 362.79; 7873.118;  302.910;20634.303; 0.42906
 363.38; 7960.319;  301.613;20815.514; 0.42789
 363.98; 8059.531;  289.171;20943.715; 0.42457
 364.57; 8068.633;  277.744;21176.149; 0.42853
 365.16; 8127.634;  288.573;21351.502; 0.42925
 365.76; 8153.744;  293.720;21537.287; 0.43180
 366.35; 8282.347;  294.920;21731.542; 0.42875
 366.94; 8346.944;  286.459;21913.791; 0.42864
 367.53; 8428.616;  286.426;22067.466; 0.42734
 368.13; 8497.964;  291.994;22246.489; 0.42739
 368.72; 8534.431;  285.482;22413.295; 0.42854
 369.31; 8582.828;  292.281;22597.374; 0.42982
 369.91; 8585.657;  283.382;22746.877; 0.43228
 370.50; 8654.860;  291.699;22820.059; 0.43036
 371.09; 8710.397;  278.017;22946.909; 0.42948
 371.68; 8783.816;  286.967;23106.324; 0.42905
 372.28; 8878.068;  294.984;23340.584; 0.42894
 372.87; 8941.316;  297.367;23443.502; 0.42777
 373.46; 9039.749;  297.723;23614.255; 0.42605
 374.05; 9108.661;  287.889;23758.158; 0.42501
 374.65; 9196.663;  290.440;23950.173; 0.42432
 375.24; 9259.171;  272.918;24146.349; 0.42434
 375.83; 9284.186;  275.848;24331.370; 0.42657
 376.42; 9364.696;  273.516;24515.563; 0.42595
 377.02; 9433.967;  293.907;24527.502; 0.42347
 377.61; 9557.804;  288.112;24762.668; 0.42165
 378.20; 9625.598;  297.747;24944.118; 0.42197
 378.79; 9687.034;  297.015;25086.217; 0.42160
 379.38; 9707.935;  282.191;25204.109; 0.42227
 379.98; 9792.971;  267.243;25344.469; 0.42038
 380.57; 9886.897;  272.112;25606.751; 0.42078
 381.16;10023.927;  291.609;25727.129; 0.41722
 381.75;10037.283;  289.589;25767.151; 0.41726
 382.35;10117.399;  283.703;25937.612; 0.41644
 382.94;10152.155;  271.231;26182.039; 0.41868
 383.53;10303.212;  279.541;26558.760; 0.41859
 384.12;10483.757;  269.432;26865.627; 0.41561
 384.71;10620.821;  284.069;27028.687; 0.41285
 385.31;10746.007;  287.699;27353.893; 0.41297
 385.90;10794.547;  299.731;27598.110; 0.41516
 386.49;10918.104;  283.306;27919.987; 0.41476
 387.08;11034.062;  296.763;28085.602; 0.41298
 387.67;11165.054;  302.047;28384.267; 0.41248
 388.26;11376.870;  312.463;28670.094; 0.40874
 388.86;11564.880;  297.866;29041.131; 0.40673
 389.45;11717.706;  285.685;29324.329; 0.40485
 390.04;11795.205;  279.860;29566.863; 0.40540
 390.63;11877.656;  284.795;29878.048; 0.40700
 391.22;11975.343;  294.422;30097.179; 0.40678
 391.81;12110.150;  303.408;30368.117; 0.40593
 392.41;12283.846;  324.211;30517.642; 0.40219
 393.00;12561.952;  349.022;30747.606; 0.39603
 393.59;12605.681;  379.676;31111.212; 0.40030
 394.18;12709.754;  399.780;31505.223; 0.40258
 394.77;12734.134;  433.703;31930.599; 0.40835
 395.36;13012.853;  473.557;32244.356; 0.40375
 395.95;13189.453;  524.323;32561.017; 0.40304
 396.55;13357.471;  566.236;32856.406; 0.40216
 397.14;13485.457;  594.577;33298.717; 0.40432
 397.73;13619.113;  601.786;33627.642; 0.40433
 398.32;13772.039;  612.294;34204.404; 0.40699
 398.91;13957.915;  621.039;34614.988; 0.40635
 399.50;14249.064;  632.059;35200.379; 0.40460
 400.09;14541.858;  605.452;35675.306; 0.40078
 400.68;14858.930;  582.293;36366.134; 0.39906
 401.27;15101.380;  548.561;37014.694; 0.39894
 401.87;15425.863;  525.771;37604.957; 0.39594
 402.46;15661.654;  501.053;38119.893; 0.39469
 403.05;15969.457;  484.389;38675.942; 0.39205
 403.64;16184.653;  490.521;39240.769; 0.39254
 404.23;16502.662;  484.797;39841.080; 0.39041
 404.82;16692.619;  502.588;40438.695; 0.39212
 405.41;16985.093;  491.629;41140.816; 0.39174
 406.00;17242.971;  497.890;41752.976; 0.39159
 406.59;17613.538;  479.966;42383.807; 0.38841
 407.18;17871.835;  482.149;42943.385; 0.38770
 407.77;18118.824;  466.520;43500.038; 0.38701
 408.37;18303.444;  484.641;43973.019; 0.38749
 408.96;18586.954;  491.806;44465.898; 0.38563
 409.55;18806.346;  504.476;44970.283; 0.38553
 410.14;19095.554;  481.626;45459.452; 0.38316
 410.73;19248.578;  490.299;45905.805; 0.38401
 411.32;19589.854;  492.855;46441.730; 0.38131
 411.91;19741.045;  505.687;47060.216; 0.38386
 412.50;19941.484;  480.732;47624.639; 0.38427
 413.09;19997.282;  484.505;48110.411; 0.38752
 413.68;20160.812;  482.467;48573.257; 0.38807
 414.27;20369.807;  487.472;48936.919; 0.38682
 414.86;20630.871;  462.470;49236.309; 0.38352
 415.45;20879.329;  452.555;49687.411; 0.38207
 416.04;20974.340;  462.743;50083.734; 0.38367
 416.63;21113.216;  468.551;50542.275; 0.38480
 417.22;21273.297;  461.867;50754.683; 0.38320
 417.81;21517.769;  462.159;51068.477; 0.38084
 418.40;21670.308;  476.694;51393.675; 0.38066
 418.99;21720.498;  477.832;51737.830; 0.38257
 419.58;21833.417;  462.218;51969.382; 0.38204
 420.17;21828.103;  452.952;52248.392; 0.38438
 420.76;21953.558;  458.593;52499.836; 0.38401
 421.35;22013.490;  472.988;53005.769; 0.38717
 421.94;22060.559;  474.287;53203.501; 0.38787
 422.53;22096.704;  469.601;53402.299; 0.38873
 423.12;22232.578;  471.552;53493.823; 0.38678
 423.71;22358.969;  463.366;53670.857; 0.38562
 424.30;22434.316;  471.573;53819.883; 0.38543
 424.89;22371.119;  477.611;53888.037; 0.38731
 425.48;22316.132;  477.854;53974.356; 0.38911
 426.07;22295.835;  465.438;53940.695; 0.38909
 426.66;22240.998;  460.097;54040.507; 0.39093
 427.25;22256.275;  453.014;53995.096; 0.39017
 427.84;22186.240;  450.549;53912.043; 0.39087
 428.43;22032.976;  452.848;53711.442; 0.39234
 429.02;21987.757;  457.772;53797.552; 0.39401
 429.61;21786.333;  448.720;53826.107; 0.39821
 430.20;21685.014;  425.820;53758.443; 0.39945
 430.79;21528.816;  437.001;53531.580; 0.40094
 431.38;21504.458;  442.471;53315.543; 0.39974
 431.97;21341.366;  451.391;53001.434; 0.40064
 432.55;21163.276;  445.807;52690.011; 0.40170
 433.14;20994.010;  441.412;52704.411; 0.40533
 433.73;20887.345;  432.971;52655.054; 0.40707
 434.32;20705.910;  424.624;52606.263; 0.41042
 434.91;20511.719;  423.161;52233.737; 0.41147
 435.50;20321.855;  418.064;51971.869; 0.41332
 436.09;20120.306;  418.432;51687.970; 0.41535
 436.68;19964.655;  422.559;51624.303; 0.41831
 437.27;19879.157;  439.214;51661.122; 0.42076
 437.86;19718.947;  433.576;51508.561; 0.42298
 438.45;19531.375;  436.794;51330.326; 0.42575
 439.04;19353.686;  419.148;51043.637; 0.42711
 439.62;19187.704;  412.025;51000.963; 0.43046
 440.21;18982.133;  413.441;50885.373; 0.43427
 440.80;18809.630;  430.263;51024.538; 0.43977
 441.39;18770.910;  449.560;51081.161; 0.44146
 441.98;18721.055;  447.874;51020.625; 0.44210
 442.57;18581.345;  436.530;50797.219; 0.44334
 443.16;18429.723;  425.660;50702.578; 0.44600
 443.75;18271.406;  431.481;50788.909; 0.45067
 444.33;18124.881;  435.018;50969.383; 0.45586
 444.92;17939.513;  440.355;50892.685; 0.45986
 445.51;17809.843;  417.614;50850.986; 0.46236
 446.10;17722.426;  410.612;51056.876; 0.46620
 446.69;17618.107;  404.712;51275.545; 0.47060
 447.28;17512.963;  420.929;51457.726; 0.47509
 447.87;17383.959;  412.657;51329.383; 0.47715
 448.45;17315.334;  413.036;51412.748; 0.47962
 449.04;17223.574;  390.874;51445.980; 0.48189
 449.63;17156.893;  386.972;51646.289; 0.48524
 450.22;17053.075;  381.501;51835.467; 0.48944
 450.81;16922.493;  386.090;52100.884; 0.49517
 451.40;16814.413;  391.666;52058.120; 0.49776
 451.98;16711.712;  398.229;52052.065; 0.50056
 452.57;16597.454;  403.856;52211.469; 0.50505
 453.16;16399.674;  401.626;52273.023; 0.51086
 453.75;16221.031;  391.994;52359.708; 0.51628
 454.34;16151.018;  388.814;52215.013; 0.51693
 454.93;16168.717;  395.232;52494.699; 0.51891
 455.51;16013.245;  391.805;52615.216; 0.52414
 456.10;15904.486;  402.670;52907.445; 0.52982
 456.69;15726.092;  396.116;53041.712; 0.53582
 457.28;15731.917;  403.304;53288.203; 0.53783
 457.87;15606.054;  395.902;53216.666; 0.54067
 458.45;15532.107;  396.108;53304.691; 0.54352
 459.04;15458.481;  388.965;53401.373; 0.54628
 459.63;15309.599;  395.666;53676.141; 0.55298
 460.22;15163.929;  396.420;53639.128; 0.55695
 460.80;14958.275;  400.600;53692.823; 0.56357
 461.39;14965.008;  392.483;53895.895; 0.56485
 461.98;14970.252;  393.792;54364.115; 0.56850
 462.57;15020.107;  398.874;54782.941; 0.57049
 463.16;15026.456;  397.668;55197.607; 0.57357
 463.74;15052.394;  387.726;55673.212; 0.57634
 464.33;14971.284;  376.102;56213.777; 0.58272
 464.92;14882.565;  370.427;56547.398; 0.58783
 465.51;14829.883;  357.831;56911.710; 0.59193
 466.09;14922.421;  358.204;57352.888; 0.59255
 466.68;14981.326;  361.518;57898.436; 0.59500
 467.27;15003.197;  372.331;58292.638; 0.59756
 467.86;14971.293;  368.243;58560.733; 0.60042
 468.44;15021.153;  363.094;58919.922; 0.60150
 469.03;14977.719;  361.882;59322.152; 0.60574
 469.62;14978.288;  367.807;59788.037; 0.60927
 470.20;14913.603;  365.300;60231.337; 0.61437
 470.79;14926.128;  374.762;60677.863; 0.61744
 471.38;14899.767;  358.816;61146.166; 0.62122
 471.97;14981.002;  359.020;61564.389; 0.62178
 472.55;15057.631;  350.111;61933.679; 0.62193
 473.14;15127.892;  362.234;62406.602; 0.62345
 473.73;15174.514;  355.473;62971.535; 0.62587
 474.31;15175.113;  347.428;63489.444; 0.62925
 474.90;15145.260;  350.797;63899.238; 0.63301
 475.49;15060.597;  352.737;64160.914; 0.63733
 476.07;15060.328;  357.870;64473.326; 0.63957
 476.66;15131.521;  347.892;64752.829; 0.63914
 477.25;15173.047;  340.581;65000.332; 0.63942
 477.84;15203.579;  352.761;65155.193; 0.63984
 478.42;15170.338;  344.733;65155.945; 0.64064
 479.01;15123.728;  344.681;65156.001; 0.64200
 479.60;15066.577;  330.210;65156.511; 0.64336
 480.18;15058.005;  334.265;65158.257; 0.64372
 480.77;14984.240;  342.135;65159.480; 0.64609
 481.35;14912.465;  347.900;65159.373; 0.64835
 481.94;14936.945;  344.738;65159.188; 0.64755
 482.53;14896.354;  335.059;65159.923; 0.64854
 483.11;14905.480;  332.000;65160.709; 0.64820
 483.70;14788.833;  318.067;65161.719; 0.65138
 484.29;14845.119;  316.585;65163.324; 0.64967
 484.87;14712.682;  306.461;65164.542; 0.65341
 485.46;14607.743;  315.710;65164.272; 0.65681
 486.05;14500.711;  319.958;65162.920; 0.66016
 486.63;14435.710;  321.237;65162.258; 0.66219
 487.22;14446.367;  317.302;65162.909; 0.66177
 487.81;14362.839;  323.288;65164.368; 0.66450
 488.39;14293.947;  331.856;65164.474; 0.66684
 488.98;14147.199;  337.207;65163.733; 0.67156
 489.56;14010.270;  317.228;65164.794; 0.67539
 490.15;13940.195;  310.772;65166.371; 0.67747
 490.74;13829.955;  302.771;65167.454; 0.68080
 491.32;13681.293;  305.937;65168.774; 0.68569
 491.91;13502.591;  316.111;64974.057; 0.69049
 492.49;13323.844;  317.823;64712.314; 0.69470
 493.08;13089.322;  332.939;64167.133; 0.69933
 493.67;12944.073;  325.500;63724.219; 0.70107
 494.25;12802.041;  343.920;63105.848; 0.70224
 494.84;12676.285;  335.724;62474.087; 0.70202
 495.42;12483.957;  338.386;61959.759; 0.70531
 496.01;12278.518;  319.873;61399.648; 0.70822
 496.59;12107.988;  310.443;60754.114; 0.70956
 497.18;11985.690;  311.106;60078.479; 0.70922
 497.77;11765.857;  311.733;59331.632; 0.71204
 498.35;11700.362;  326.966;58841.796; 0.71138
 498.94;11483.445;  324.499;58030.218; 0.71360
 499.52;11436.752;  324.914;57567.186; 0.71193
 500.11;11280.846;  311.275;56906.600; 0.71259
 500.69;11199.156;  304.601;56449.246; 0.71210
 501.28;11119.286;  315.149;55764.708; 0.71031
 501.86;10994.379;  317.653;55155.772; 0.71064
 502.45;10940.656;  338.264;54632.693; 0.70935
 503.03;10814.282;  328.939;54106.656; 0.71002
 503.62;10795.369;  339.385;53665.090; 0.70757
 504.20;10745.918;  326.215;53123.968; 0.70476
 504.79;10724.107;  326.766;52666.148; 0.70191
 505.37;10754.154;  326.582;52358.543; 0.69809
 505.96;10716.705;  332.269;51859.105; 0.69565
 506.55;10793.444;  327.706;51491.158; 0.68919
 507.13;10839.038;  315.837;51254.709; 0.68490
 507.72;10948.731;  312.954;51138.387; 0.67931
 508.30;10939.298;  319.265;50944.634; 0.67824
 508.89;10961.814;  316.460;50626.145; 0.67449
 509.47;11061.064;  308.593;50383.056; 0.66811
 510.05;11193.214;  311.037;50305.214; 0.66220
 510.64;11333.201;  312.992;50205.541; 0.65585
 511.22;11478.809;  326.961;50242.492; 0.65089
 511.81;11656.168;  323.186;50282.527; 0.64427
 512.39;11824.585;  329.747;50266.280; 0.63792
 512.98;11944.423;  310.647;50213.110; 0.63240
 513.56;12205.281;  306.947;50200.284; 0.62256
 514.15;12396.516;  297.484;50225.841; 0.61560
 514.73;12713.679;  293.306;50310.339; 0.60498
 515.32;12909.718;  298.909;50412.714; 0.59921
 515.90;13103.478;  306.909;50529.464; 0.59381
 516.49;13272.956;  321.223;50576.262; 0.58885
 517.07;13479.506;  323.415;50501.804; 0.58139
 517.66;13772.994;  325.663;50468.951; 0.57158
 518.24;13935.152;  330.491;50581.443; 0.56746
 518.82;14029.824;  322.791;50433.118; 0.56298
 519.41;14196.624;  321.449;50483.238; 0.55813
 519.99;14494.013;  304.901;50520.942; 0.54889
 520.58;14874.924;  313.039;50964.514; 0.54137
 521.16;15222.595;  316.114;51139.212; 0.53269
 521.75;15522.536;  315.579;51354.849; 0.52586
 522.33;15826.868;  314.722;51552.832; 0.51892
 522.91;16132.173;  303.280;51724.449; 0.51169
 523.50;16401.818;  304.661;51708.091; 0.50424
 524.08;16813.255;  292.957;51816.521; 0.49399
 524.67;17253.234;  296.699;52029.160; 0.48443
 525.25;17561.381;  294.898;52244.306; 0.47838
 525.83;17778.421;  300.195;52281.679; 0.47335
 526.42;17953.733;  299.604;52255.985; 0.46879
 527.00;18324.732;  297.414;52315.968; 0.46023
 527.59;18548.831;  293.742;52194.390; 0.45379
 528.17;18843.238;  296.702;52169.461; 0.44668
 528.75;19127.561;  314.407;52237.781; 0.44090
 529.34;19363.318;  317.963;52410.206; 0.43698
 529.92;19584.808;  322.096;52599.701; 0.43360
 530.50;19805.533;  308.099;52577.086; 0.42827
 531.09;20169.369;  310.277;52580.588; 0.42030
 531.67;20480.847;  319.699;52493.409; 0.41294
 532.25;20714.397;  331.224;52474.618; 0.40793
 532.84;20821.538;  319.265;52286.406; 0.40393
 533.42;21025.256;  303.579;52069.121; 0.39762
 534.00;21235.413;  296.379;51800.283; 0.39088
 534.59;21424.485;  306.923;51692.027; 0.38619
 535.17;21500.425;  307.396;51484.292; 0.38288
 535.75;21556.165;  311.833;51399.345; 0.38107
 536.34;21765.464;  327.170;51106.314; 0.37450
 536.92;21878.828;  323.362;50970.357; 0.37100
 537.50;22001.508;  320.767;50555.361; 0.36493
 538.09;22071.425;  304.234;50224.272; 0.36047
 538.67;22238.176;  307.957;49849.711; 0.35393
 539.25;22371.032;  292.004;49517.578; 0.34821
 539.84;22501.898;  298.382;49195.084; 0.34286
 540.42;22564.917;  287.620;48747.408; 0.33752
 541.00;22549.119;  304.712;48328.615; 0.33424
 541.59;22604.309;  293.453;47996.146; 0.33003
 542.17;22715.148;  303.713;47681.974; 0.32511
 542.75;22914.936;  301.687;47449.085; 0.31909
 543.33;23041.945;  321.928;47035.436; 0.31303
 543.92;23046.970;  322.791;46647.473; 0.30932
 544.50;23167.503;  319.637;46212.001; 0.30289
 545.08;23117.245;  303.653;45900.067; 0.30074
 545.67;23157.372;  304.594;45544.519; 0.29658
 546.25;23209.451;  306.855;45243.598; 0.29272
 546.83;23325.079;  305.919;44881.223; 0.28700
 547.41;23443.819;  307.185;44485.963; 0.28091
 548.00;23349.271;  304.048;44073.416; 0.27859
 548.58;23421.539;  293.554;43651.340; 0.27293
 549.16;23483.505;  273.252;43462.973; 0.26970
 549.74;23645.206;  276.221;43125.006; 0.26330
 550.33;23651.566;  287.338;42789.017; 0.25985
 550.91;23675.356;  287.502;42328.145; 0.25468
 551.49;23739.928;  275.114;42084.067; 0.25085
 552.07;23929.205;  281.527;41894.675; 0.24544
 552.66;24071.790;  296.715;41696.915; 0.24088
 553.24;24186.012;  301.874;41407.799; 0.23579
 553.82;24221.947;  287.046;41262.389; 0.23349
 554.40;24290.542;  287.502;41018.645; 0.22966
 554.98;24396.747;  286.839;40927.197; 0.22676
 555.57;24545.648;  295.511;40724.442; 0.22198
 556.15;24696.734;  295.794;40729.857; 0.21934
 556.73;24908.409;  289.872;40584.856; 0.21399
 557.31;24976.662;  280.087;40487.094; 0.21167
 557.89;25136.805;  267.680;40402.230; 0.20786
 558.48;25242.725;  270.725;40389.487; 0.20589
 559.06;25512.545;  269.279;40492.969; 0.20234
 559.64;25755.934;  288.172;40421.363; 0.19751
 560.22;25843.394;  308.276;40298.501; 0.19482
 560.80;26014.001;  311.749;40155.433; 0.19039
 561.39;26178.056;  300.174;40123.139; 0.18720
 561.97;26482.392;  304.256;40118.465; 0.18210
 562.55;26633.185;  305.864;40159.584; 0.18006
 563.13;26784.417;  307.652;40244.814; 0.17851
 563.71;26909.593;  295.320;40343.674; 0.17747
 564.29;27120.746;  296.315;40286.513; 0.17342
 564.88;27310.278;  280.495;40218.374; 0.16954
 565.46;27492.690;  277.260;40267.767; 0.16714
 566.04;27731.498;  269.464;40338.574; 0.16408
 566.62;27954.038;  292.162;40520.457; 0.16265
 567.20;28156.591;  292.265;40647.678; 0.16085
 567.78;28365.664;  300.170;40851.754; 0.15984
 568.36;28522.331;  300.837;41002.754; 0.15903
 568.94;28793.773;  296.460;41004.189; 0.15487
 569.53;28997.113;  295.816;41099.192; 0.15279
 570.11;29231.748;  283.902;41113.488; 0.14936
 570.69;29441.179;  278.869;41248.245; 0.14764
 571.27;29645.529;  279.854;41227.262; 0.14439
 571.85;29817.824;  279.584;41295.220; 0.14256
 572.43;29972.501;  299.078;41479.213; 0.14232
 573.01;30126.160;  288.199;41566.526; 0.14095
 573.59;30295.631;  284.931;41522.011; 0.13801
 574.17;30533.912;  270.419;41423.650; 0.13348
 574.76;30668.009;  278.826;41529.098; 0.13271
 575.34;30909.574;  274.920;41725.997; 0.13132
 575.92;31044.767;  271.771;41808.186; 0.13026
 576.50;31209.082;  265.398;41828.507; 0.12814
 577.08;31316.625;  261.206;41866.048; 0.12701
 577.66;31565.948;  250.776;41875.013; 0.12359
 578.24;31705.437;  252.747;41879.155; 0.12171
 578.82;31822.193;  257.942;41897.583; 0.12031
 579.40;31877.486;  266.978;41903.210; 0.11964
 579.98;32059.238;  273.567;41841.961; 0.11653
 580.56;32273.593;  281.852;41853.319; 0.11376
 581.14;32423.107;  291.659;41917.834; 0.11244
 581.72;32707.520;  280.280;42082.244; 0.11029
 582.30;32861.755;  273.151;42074.467; 0.10812
 582.88;33008.241;  274.650;42152.288; 0.10699
 583.46;32999.763;  282.363;42189.821; 0.10751
 584.04;33047.053;  282.956;42171.457; 0.10670
 584.62;33123.411;  265.125;42197.830; 0.10591
 585.21;33251.018;  267.265;42241.428; 0.10468
 585.79;33439.274;  273.754;42392.009; 0.10378
 586.37;33670.240;  277.118;42415.309; 0.10102
 586.95;33892.078;  275.522;42455.787; 0.09856
 587.53;34102.462;  269.979;42469.819; 0.09598
 588.11;34229.894;  278.442;42585.262; 0.09555
 588.69;34234.150;  282.733;42557.865; 0.09523
 589.27;34377.426;  283.424;42506.477; 0.09287
 589.85;34476.558;  276.026;42443.602; 0.09095
 590.43;34768.898;  271.715;42599.939; 0.08885
 591.01;34837.139;  278.076;42722.853; 0.08926
 591.59;34948.228;  288.299;42936.945; 0.09008
 592.16;34958.274;  287.924;42891.657; 0.08949
 592.74;35075.672;  291.617;42886.045; 0.08797
 593.32;35126.925;  293.193;42739.948; 0.08584
 593.90;35298.616;  297.895;42708.966; 0.08340
 594.48;35366.349;  288.777;42603.037; 0.08146
 595.06;35424.775;  285.245;42684.475; 0.08156
 595.64;35360.537;  272.769;42709.242; 0.08258
 596.22;35401.436;  276.890;42757.472; 0.08258
 596.80;35479.257;  268.138;42505.619; 0.07902
 597.38;35559.202;  264.245;42457.558; 0.07753
 597.96;35532.885;  262.869;42299.911; 0.07623
 598.54;35534.377;  268.057;42320.734; 0.07643
 599.12;35554.723;  272.769;42174.074; 0.07467
 599.70;35610.269;  272.156;42133.628; 0.07357
 600.28;35557.849;  269.178;41999.881; 0.07282
 600.86;35469.880;  273.568;41898.236; 0.07285
 601.44;35424.964;  279.130;41816.989; 0.07257
 602.02;35423.625;  273.135;41601.984; 0.07032
 602.59;35520.147;  269.019;41487.164; 0.06792
 603.17;35505.963;  254.435;41427.991; 0.06744
 603.75;35474.326;  264.600;41407.036; 0.06763
 604.33;35361.991;  268.544;41269.041; 0.06756
 604.91;35274.262;  272.574;41056.648; 0.06640
 605.49;35279.021;  271.546;40985.067; 0.06558
 606.07;35245.851;  254.900;40828.877; 0.06429
 606.65;35261.676;  260.422;40696.701; 0.06269
 607.23;35075.771;  264.441;40448.820; 0.06234
 607.80;34987.990;  277.156;40221.379; 0.06099
 608.38;34901.764;  277.256;40025.464; 0.05993
 608.96;34867.642;  285.786;39921.000; 0.05923
 609.54;34683.682;  288.246;39743.725; 0.05961
 610.12;34412.665;  283.928;39528.375; 0.06066
 610.70;34192.916;  273.259;39095.265; 0.05863
 611.28;33950.714;  259.195;38813.390; 0.05855
 611.85;33659.551;  265.841;38433.913; 0.05804
 612.43;33487.254;  260.695;38304.961; 0.05880
 613.01;33358.792;  263.202;38019.161; 0.05722
 613.59;33310.081;  249.299;37795.112; 0.05525
 614.17;33134.711;  240.914;37668.085; 0.05607
 614.75;32944.830;  222.778;37521.205; 0.05685
 615.32;32761.741;  209.277;37291.775; 0.05659
 615.90;32567.864;  219.080;36866.572; 0.05419
 616.48;32315.941;  232.952;36658.988; 0.05514
 617.06;32063.112;  255.157;36308.488; 0.05441
 617.64;31890.433;  246.140;36072.812; 0.05391
 618.22;31743.804;  241.049;35666.522; 0.05097
 618.79;31618.236;  228.178;35515.632; 0.05083
 619.37;31228.953;  227.104;35180.352; 0.05210
 619.95;30981.559;  231.387;34894.600; 0.05202
 620.53;30638.458;  218.869;34491.494; 0.05179
 621.11;30402.249;  206.529;34156.975; 0.05090
 621.68;30130.971;  201.116;33920.700; 0.05178
 622.26;30024.393;  202.843;33803.106; 0.05181
 622.84;29945.665;  212.594;33643.042; 0.05090
 623.42;29869.026;  214.208;33340.072; 0.04807
 623.99;29615.444;  232.130;33128.823; 0.04905
 624.57;29472.160;  239.695;32874.211; 0.04781
 625.15;29319.227;  249.244;32723.283; 0.04809
 625.73;29163.057;  235.066;32483.448; 0.04719
 626.30;28912.736;  228.444;32290.122; 0.04834
 626.88;28729.552;  228.031;32032.596; 0.04762
 627.46;28486.729;  230.061;31766.787; 0.04770
 628.04;28349.485;  242.419;31549.234; 0.04682
 628.61;28159.689;  241.899;31249.103; 0.04558
 629.19;28144.347;  244.829;31015.066; 0.04253
 629.77;28019.376;  231.831;30736.758; 0.04052
 630.35;27751.799;  234.217;30562.869; 0.04224
 630.92;27461.509;  232.092;30375.921; 0.04416
 631.50;27215.053;  220.757;30199.145; 0.04554
 632.08;27094.583;  206.521;29949.680; 0.04383
 632.66;26948.704;  196.801;29744.460; 0.04317
 633.23;26733.335;  216.776;29426.430; 0.04201
 633.81;26471.263;  225.566;29138.020; 0.04203
 634.39;26218.680;  220.298;28844.754; 0.04179
 634.96;26156.387;  221.956;28624.791; 0.03948
 635.54;26048.138;  216.680;28606.896; 0.04102
 636.12;25884.861;  214.735;28334.976; 0.03959
 636.69;25597.151;  204.526;28222.591; 0.04273
 637.27;25320.409;  199.403;27913.834; 0.04267
 637.85;25118.976;  217.219;27696.062; 0.04277
 638.42;24967.235;  206.286;27392.989; 0.04059
 639.00;24836.689;  223.367;27259.457; 0.04077
 639.58;24622.500;  209.789;26981.612; 0.04006
 640.15;24355.365;  222.891;26790.445; 0.04175
 640.73;24133.813;  204.119;26492.226; 0.04082
 641.31;24089.262;  216.013;26471.006; 0.04130
 641.88;24095.710;  210.908;26285.787; 0.03810
 642.46;24165.159;  226.803;26132.901; 0.03431
 643.04;23983.274;  214.697;25934.349; 0.03426
 643.61;23779.722;  223.925;25817.463; 0.03603
 644.19;23554.838;  209.153;25659.577; 0.03749
 644.77;23424.286;  224.048;25468.358; 0.03667
 645.34;23275.068;  211.943;25293.805; 0.03644
 645.92;23070.850;  214.504;25070.586; 0.03643
 646.49;22982.965;  218.399;24938.033; 0.03578
 647.07;22815.413;  220.293;24745.814; 0.03560
 647.65;22772.862;  224.188;24564.928; 0.03321
 648.22;22572.310;  218.082;24391.042; 0.03397
 648.80;22460.759;  227.310;24368.156; 0.03575
 649.37;22264.207;  227.872;24339.937; 0.03910
 649.95;22171.323;  227.433;24242.051; 0.03916
 650.53;22168.771;  209.328;24121.165; 0.03699
 651.10;22085.219;  214.222;24054.279; 0.03744
 651.68;22090.001;  211.450;24020.060; 0.03672
 652.25;21970.450;  221.012;23899.174; 0.03690
 652.83;21910.898;  211.573;23700.955; 0.03443
 653.41;21799.013;  208.468;23524.069; 0.03338
 653.98;21754.795;  212.362;23340.850; 0.03085
 654.56;21663.910;  211.590;23307.630; 0.03206
 655.13;21602.359;  208.818;23285.744; 0.03290
 655.71;21517.141;  207.379;23284.525; 0.03460
 656.28;21447.923;  194.941;23185.639; 0.03413
 656.86;21337.704;  188.169;22962.753; 0.03215
 657.43;21230.486;  190.397;22872.868; 0.03264
 658.01;21264.268;  212.958;22793.315; 0.03045
 658.58;21325.716;  207.519;22876.096; 0.03077
 659.16;21329.832;  211.747;22798.876; 0.02921
 659.74;21294.280;  196.309;22777.324; 0.02950
 660.31;21200.729;  204.203;22714.438; 0.03023
 660.89;21189.510;  198.098;22687.885; 0.02994
 661.46;21190.292;  206.659;22545.999; 0.02719
 662.04;21121.741;  208.554;22516.780; 0.02804
 662.61;21102.856;  207.448;22500.894; 0.02813
 663.19;21024.638;  206.676;22626.342; 0.03219
 663.76;21111.086;  209.571;22600.456; 0.02989
 664.34;21095.535;  211.132;22526.237; 0.02878
 664.91;21159.983;  214.027;22413.684; 0.02525
 665.49;21183.432;  216.922;22441.798; 0.02531
 666.06;21181.547;  213.150;22513.246; 0.02674
 666.64;21186.995;  212.044;22555.693; 0.02745
 667.21;21141.777;  216.606;22500.140; 0.02732
 667.79;21143.559;  204.167;22400.588; 0.02532
 668.36;21102.007;  201.395;22402.702; 0.02622
 668.93;21073.123;  202.290;22421.149; 0.02718
 669.51;21066.571;  198.184;22426.263; 0.02741
 670.08;20998.020;  192.412;22387.044; 0.02807
 670.66;20969.801;  189.307;22273.825; 0.02643
 671.23;20922.917;  213.201;22361.606; 0.02917
 671.81;21009.032;  219.763;22403.720; 0.02820
 672.38;21043.147;  224.324;22501.167; 0.02940
 672.96;21118.262;  213.552;22510.281; 0.02800
 673.53;21068.377;  213.113;22482.395; 0.02849
 674.10;21094.159;  213.008;22524.843; 0.02878
 674.68;21109.274;  228.236;22505.290; 0.02811
 675.25;21144.389;  221.131;22417.404; 0.02565
 675.83;21127.504;  215.692;22370.185; 0.02507
 676.40;21029.286;  203.253;22300.299; 0.02573
 676.98;20949.401;  209.148;22323.413; 0.02786
 677.55;20902.183;  210.043;22281.527; 0.02803
 678.12;20997.965;  223.937;22260.975; 0.02563
 678.70;20965.747;  221.832;22236.089; 0.02581
 679.27;20970.862;  229.060;22163.870; 0.02429
 679.85;20860.977;  216.621;22124.984; 0.02581
 680.42;20976.759;  216.516;22133.431; 0.02355
 680.99;20902.541;  192.744;22099.212; 0.02440
 681.57;20843.656;  198.305;22028.659; 0.02424
 682.14;20687.438;  205.866;21848.773; 0.02395
 682.71;20626.553;  210.761;21795.554; 0.02418
 683.29;20560.001;  200.656;21706.668; 0.02380
 683.86;20456.450;  185.884;21546.116; 0.02274
 684.43;20337.898;  198.112;21362.230; 0.02155
 685.01;20271.014;  197.006;21197.011; 0.01959
 685.58;20237.795;  206.234;21272.458; 0.02187
 686.16;20295.244;  206.462;21269.239; 0.02056
 686.73;20286.359;  215.023;21397.686; 0.02340
 687.30;20255.141;  207.585;21388.467; 0.02388
 687.88;20152.256;  217.479;21321.914; 0.02476
 688.45;20013.038;  210.707;21118.362; 0.02359
 689.02;19993.820;  213.602;21022.142; 0.02201
 689.60;19897.601;  190.497;20889.257; 0.02132
 690.17;19975.383;  199.391;20926.704; 0.02040
 690.74;19843.498;  189.619;20805.485; 0.02075
 691.31;19831.947;  204.181;20824.932; 0.02143
 691.89;19757.062;  191.742;20754.713; 0.02160
 692.46;19673.511;  212.637;20700.494; 0.02233
 693.03;19620.959;  229.198;20611.941; 0.02165
 693.61;19558.408;  234.759;20426.722; 0.01909
 694.18;19570.856;  237.320;20424.503; 0.01876
 694.75;19574.305;  206.882;20414.950; 0.01845
 695.32;19525.753;  208.110;20458.064; 0.02047
 695.90;19468.868;  203.004;20312.512; 0.01861
 696.47;19342.317;  203.899;20210.626; 0.01927
 697.04;19209.432;  214.460;20060.073; 0.01903
 697.62;19136.547;  213.355;20039.187; 0.02024
 698.19;19122.995;  229.250;19951.301; 0.01863
 698.76;19119.111;  211.144;19960.082; 0.01890
 699.33;19025.892;  210.706;19883.196; 0.01935
 699.91;18830.674;  196.600;19795.977; 0.02193
 700.48;18745.123;  206.162;19674.091; 0.02123
 701.05;18645.571;  208.056;19645.538; 0.02294
 701.62;18601.686;  232.951;19536.652; 0.02156
 702.20;18482.468;  235.179;19463.767; 0.02275
 702.77;18432.250;  232.073;19314.881; 0.02057
 703.34;18469.032;  217.301;19303.995; 0.01943
 703.91;18443.814;  214.196;19161.775; 0.01678
 704.48;18409.262;  220.091;19054.223; 0.01513
 705.06;18255.711;  212.652;18964.004; 0.01672
 705.63;18162.826;  221.213;18940.118; 0.01842
 706.20;18171.274;  214.441;18934.565; 0.01808
 706.77;18158.723;  221.336;18864.679; 0.01676
 707.34;18202.838;  215.564;18821.793; 0.01469
 707.92;18028.953;  205.792;18710.907; 0.01631
 708.49;17925.735;  193.353;18575.022; 0.01562
 709.06;17837.183;  193.248;18466.136; 0.01521
 709.63;17857.632;  194.476;18431.916; 0.01390
 710.20;17865.080;  191.037;18446.697; 0.01406
 710.77;17740.196;  187.932;18338.145; 0.01455
 711.35;17704.644;  185.826;18305.592; 0.01465
 711.92;17668.426;  205.721;18271.706; 0.01475
 712.49;17780.874;  207.616;18372.487; 0.01438
 713.06;17787.323;  215.844;18405.934; 0.01503
 713.63;17841.771;  209.405;18498.382; 0.01588
 714.20;17758.553;  212.300;18556.829; 0.01932
 714.78;17786.335;  209.528;18487.277; 0.01698
 715.35;17709.783;  205.756;18407.724; 0.01698
 715.92;17753.232;  207.317;18351.838; 0.01457
 716.49;17636.680;  222.545;18343.285; 0.01727
 717.06;17569.796;  226.106;18273.400; 0.01727
 717.63;17486.244;  217.334;18198.847; 0.01756
 718.20;17552.693;  210.895;18175.294; 0.01532
 718.77;17565.808;  224.790;18170.075; 0.01488
 719.35;17506.923;  226.351;18153.189; 0.01595
 719.92;17382.038;  211.913;18038.303; 0.01629
 720.49;17355.153;  197.474;17879.084; 0.01306
 721.06;17251.268;  177.369;17774.532; 0.01311
 721.63;17232.050;  190.930;17799.979; 0.01424
 722.20;17203.832;  195.825;17861.426; 0.01648
 722.77;17253.280;  203.386;17825.540; 0.01434
 723.34;17237.062;  196.947;17821.321; 0.01464
 723.91;17165.844;  205.509;17813.102; 0.01627
 724.48;17106.959;  222.070;17777.883; 0.01692
 725.05;17047.741;  212.964;17617.997; 0.01447
 725.62;17014.523;  195.192;17490.778; 0.01213
 726.20;16976.638;  186.754;17461.892; 0.01237
 726.77;17001.753;  192.982;17446.339; 0.01134
 727.34;16971.868;  199.210;17412.787; 0.01127
 727.91;17000.983;  209.104;17361.567; 0.00923
 728.48;16993.099;  214.999;17354.015; 0.00924
 729.05;16933.547;  215.560;17353.795; 0.01078
 729.62;16926.662;  192.788;17320.910; 0.01011
 730.19;16831.777;  185.683;17297.024; 0.01197
 730.76;17004.226;  188.578;17324.138; 0.00818
 731.33;17006.341;  211.472;17306.252; 0.00769
 731.90;16995.790;  215.034;17274.033; 0.00714
 732.47;16886.571;  206.261;17242.147; 0.00916
 733.04;16771.353;  191.156;17245.594; 0.01225
 733.61;16748.468;  168.051;17256.042; 0.01310
 734.18;16690.917;  173.945;17191.156; 0.01296
 734.75;16601.032;  184.507;17077.270; 0.01242
 735.32;16587.814;  211.401;16955.384; 0.00964
 735.89;16433.596;  203.963;16851.831; 0.01105
 736.46;16468.044;  212.191;16734.945; 0.00707
 737.03;16383.826;  203.085;16674.393; 0.00773
 737.60;16370.274;  203.647;16580.840; 0.00562
 738.17;16259.056;  173.208;16558.621; 0.00801
 738.74;16106.838;  184.103;16523.735; 0.01122
 739.31;15978.620;  185.331;16430.849; 0.01226
 739.88;15868.735;  195.225;16300.630; 0.01181
 740.45;15851.184;  176.120;16234.411; 0.01049
 741.02;15862.965;  174.348;16293.858; 0.01177
 741.59;15914.080;  171.909;16337.305; 0.01152
 742.15;15921.529;  177.804;16325.753; 0.01101
 742.72;15958.644;  185.365;16376.867; 0.01137
 743.29;15878.093;  187.593;16351.648; 0.01291
 743.86;15924.541;  195.154;16298.095; 0.01019
 744.43;15888.990;  197.049;16220.543; 0.00908
 745.00;15947.438;  201.277;16240.323; 0.00800
 745.57;15924.887;  209.172;16261.771; 0.00921
 746.14;15916.002;  201.733;16198.552; 0.00774
 746.71;15895.117;  208.294;16179.666; 0.00781
 747.28;15808.565;  196.522;16170.446; 0.00995
 747.85;15777.681;  172.417;16124.227; 0.00954
 748.42;15797.796;  173.645;16103.675; 0.00842
 748.98;15854.911;  177.206;16075.455; 0.00607
 749.55;15869.359;  197.767;16011.569; 0.00392
 750.12;15868.141;  197.662;16015.683; 0.00407
 750.69;15753.923;  204.890;15955.131; 0.00558
 751.26;15680.038;  216.118;15910.245; 0.00642
 751.83;15580.820;  206.013;15821.026; 0.00673
 752.40;15662.268;  204.907;15769.807; 0.00301
 752.97;15628.384;  192.802;15780.587; 0.00426
 753.53;15550.499;  195.697;15773.035; 0.00625
 754.10;15392.947;  187.925;15706.815; 0.00887
 754.67;15407.396;  185.486;15666.263; 0.00732
 755.24;15429.511;  192.714;15616.044; 0.00528
 755.81;15431.293;  200.608;15583.491; 0.00432
 756.38;15380.408;  223.503;15510.272; 0.00371
 756.94;15299.190;  215.064;15482.386; 0.00524
 757.51;15236.305;  204.292;15502.833; 0.00763
 758.08;15070.753;  196.520;15545.281; 0.01364
 758.65;14992.868;  213.748;15443.728; 0.01305
 759.22;14898.317;  220.643;15351.176; 0.01320
 759.79;14817.099;  205.538;15180.623; 0.01067
 760.35;14806.547;  191.432;15130.404; 0.00952
 760.92;14730.329;  201.994;14987.518; 0.00762
 761.49;14684.778;  208.555;14849.965; 0.00493
 762.06;14473.559;  211.783;14641.079; 0.00507
 762.63;14392.341;  201.011;14500.527; 0.00330
 763.19;14243.123;  203.239;14469.641; 0.00695
 763.76;14149.571;  215.133;14423.422; 0.00845
 764.33;14035.687;  219.695;14294.202; 0.00805
 764.90;13926.802;  218.589;14107.650; 0.00569
 765.46;13780.250;  197.817;13914.097; 0.00426
 766.03;13587.032;  196.045;13749.878; 0.00525
 766.60;13452.147;  197.940;13624.992; 0.00563
 767.17;13293.262;  205.501;13465.773; 0.00569
 767.73;13122.711;  207.063;13413.220; 0.00966
 768.30;12977.493;  206.624;13205.001; 0.00767
 768.87;12860.941;  215.185;13045.782; 0.00630
 769.44;12695.056;  213.413;12836.229; 0.00488
 770.00;12473.838;  215.975;12686.677; 0.00748
 770.57;12267.953;  216.536;12525.791; 0.00919
 771.14;12143.402;  213.430;12350.238; 0.00747
 771.71;11941.184;  198.325;12122.686; 0.00666
 772.27;11719.632;  206.220;11935.800; 0.00808
 772.84;11543.081;  209.448;11715.914; 0.00657
 773.41;11455.529;  213.676;11595.695; 0.00538
 773.97;11340.644;  205.904;11440.809; 0.00389
 774.54;11165.426;  213.798;11314.923; 0.00589
 775.11;10934.541;  232.360;11227.370; 0.01172
 775.67;10792.323;  228.588;11074.818; 0.01146
 776.24;10669.438;  222.482;10902.265; 0.00957
 776.81;10568.887;  220.377;10665.712; 0.00404
 777.38;10442.002;  208.272;10484.160; 0.00179
 777.94;10303.117;  214.166;10350.941; 0.00205
 778.51;10211.899;  199.728;10214.721; 0.00012
 779.08;10122.681;  210.622;10137.835; 0.00066
 779.64;10015.796;  201.517;10058.283; 0.00188
 780.21; 9943.911;  202.745; 9970.064; 0.00116
 780.78; 9808.359;  211.639; 9870.178; 0.00279
 781.34; 9708.141;  212.534; 9787.625; 0.00362
 781.91; 9604.923;  225.762; 9703.406; 0.00454
 782.47; 9554.372;  227.990; 9633.520; 0.00367
 783.04; 9467.820;  238.551; 9482.634; 0.00070
 783.61; 9434.602;  245.779; 9385.415;-0.00233
 784.17; 9331.717;  246.674; 9320.196;-0.00055
 784.74; 9244.832;  236.569; 9240.310;-0.00022
 785.31; 9132.947;  244.797; 9256.090; 0.00598
 785.87; 9085.729;  248.691; 9137.538; 0.00254
 786.44; 9043.844;  252.252; 9126.319; 0.00406
 787.00; 9018.626;  239.480; 9065.766; 0.00233
 787.57; 8980.075;  222.375; 9005.880; 0.00128
 788.14; 8950.856;  242.936; 8941.661;-0.00046
 788.70; 8907.305;  252.831; 8828.442;-0.00398
 789.27; 8878.420;  261.392; 8880.222; 0.00009
 789.83; 8811.869;  247.620; 8836.003; 0.00122
 790.40; 8755.317;  230.182; 8838.117; 0.00420
 790.96; 8746.099;  235.076; 8799.898; 0.00274
 791.53; 8757.214;  229.304; 8766.679; 0.00048
 792.10; 8664.663;  224.866; 8777.126; 0.00575
 792.66; 8641.444;  219.094; 8720.574; 0.00406
 793.23; 8617.226;  214.988; 8733.688; 0.00598
 793.79; 8639.341;  216.216; 8675.468; 0.00186
 794.36; 8581.456;  210.777; 8660.249; 0.00407
 794.92; 8536.572;  219.339; 8606.363; 0.00363
 795.49; 8556.353;  232.233; 8532.811;-0.00123
 796.05; 8527.802;  243.461; 8505.258;-0.00118
 796.62; 8495.584;  248.023; 8527.372; 0.00167
 797.19; 8408.699;  237.917; 8507.820; 0.00524
 797.75; 8382.147;  226.145; 8453.600; 0.00379
 798.32; 8372.596;  218.373; 8393.714; 0.00112
 798.88; 8411.044;  222.601; 8383.829;-0.00145
 799.45; 8425.826;  224.829; 8436.276; 0.00055
 800.01; 8533.275;  220.391; 8517.723;-0.00081
 800.58; 8700.723;  215.952; 8677.504;-0.00119
 801.14; 8994.505;  222.513; 8916.952;-0.00386
 801.71; 9224.953;  218.074; 9117.399;-0.00522
 802.27; 9433.069;  206.969; 9310.180;-0.00582
 802.84; 9618.850;  188.864; 9480.294;-0.00643
 803.40; 9883.299;  179.758; 9723.075;-0.00723
 803.96;10124.414;  198.986;10006.189;-0.00520
 804.53;10440.529;  210.548;10273.303;-0.00716
 805.09;10751.978;  208.442;10576.417;-0.00729
 805.66;11101.426;  200.670;10926.198;-0.00704
 806.22;11354.875;  172.898;11264.978;-0.00351
 806.79;11677.657;  185.793;11622.426;-0.00209
 807.35;12020.438;  182.354;11886.873;-0.00493
 807.92;12397.553;  214.582;12161.654;-0.00849
 808.48;12743.002;  221.810;12436.768;-0.01075
 809.05;13079.117;  217.705;12708.882;-0.01269
 809.61;13354.566;  213.933;13054.330;-0.01004
 810.17;13586.014;  218.827;13355.110;-0.00757
 810.74;13830.796;  231.055;13671.891;-0.00510
 811.30;14151.578;  226.617;13899.672;-0.00793
 811.87;14493.026;  214.511;14212.453;-0.00862
 812.43;14878.808;  214.406;14571.233;-0.00921
 812.99;15260.590;  216.967;14881.014;-0.01110
 813.56;15629.038;  221.862;15191.462;-0.01251
 814.12;15876.154;  221.090;15523.909;-0.00988
 814.69;16166.269;  216.318;15866.356;-0.00824
 815.25;16449.717;  210.213;16143.804;-0.00826
 815.81;16745.832;  200.774;16302.251;-0.01180
 816.38;17082.947;  196.335;16642.699;-0.01147
 816.94;17371.396;  193.897;16882.479;-0.01254
 817.51;17684.511;  192.791;17283.594;-0.01007
 818.07;17946.293;  201.019;17504.374;-0.01095
 818.63;18134.408;  202.247;17804.155;-0.00807
 819.20;18433.857;  201.808;18033.936;-0.00963
 819.76;18663.305;  209.370;18216.050;-0.01066
 820.32;18959.087;  216.598;18394.831;-0.01328
 820.89;19067.202;  218.159;18583.278;-0.01130
 821.45;19173.984;  193.387;18775.726;-0.00921
 822.01;19252.432;  176.615;18965.173;-0.00659
 822.58;19330.548;  180.843;19065.620;-0.00605
 823.14;19428.663;  194.404;19233.068;-0.00444
 823.70;19452.778;  202.299;19352.182;-0.00228
 824.27;19584.226;  193.194;19462.963;-0.00272
 824.83;19624.675;  215.421;19467.743;-0.00353
 825.39;19675.790;  215.649;19374.524;-0.00678
 825.95;19606.905;  221.211;19316.972;-0.00654
 826.52;19473.020;  191.105;19274.752;-0.00449
 827.08;19354.135;  189.000;19152.200;-0.00460
 827.64;19089.251;  175.895;18949.314;-0.00323
 828.21;18809.032;  175.123;18660.095;-0.00349
 828.77;18498.814;  181.351;18397.542;-0.00241
 829.33;18168.596;  183.579;18029.323;-0.00338
 829.89;17846.378;  181.807;17638.104;-0.00515
 830.46;17433.160;  185.701;17297.218;-0.00344
 831.02;17108.275;  190.596;16895.332;-0.00550
 831.58;16700.723;  201.157;16540.779;-0.00423
 832.15;16305.172;  185.052;16128.893;-0.00478
 832.71;15802.287;  188.280;15811.341; 0.00025
 833.27;15407.069;  178.841;15353.455;-0.00153
 833.83;14941.851;  169.736;14940.569;-0.00004
 834.39;14499.966;  164.297;14394.016;-0.00322
 834.96;13951.414;  162.192;13925.464;-0.00082
 835.52;13588.196;  187.086;13474.578;-0.00370
 836.08;13234.645;  188.981;13047.025;-0.00629
 836.64;12882.760;  194.876;12619.473;-0.00911
 837.21;12406.542;  198.770;12148.920;-0.00926
 837.77;11924.323;  198.332;11759.367;-0.00615
 838.33;11472.105;  206.893;11447.148;-0.00096
 838.89;11029.887;  203.121;11001.596;-0.00114
 839.45;10660.669;  205.349;10589.710;-0.00296
 840.02;10228.117;  209.910;10134.490;-0.00408
 840.58; 9822.566;  201.805; 9836.938; 0.00065
 841.14; 9416.014;  224.699; 9457.052; 0.00193
 841.70; 9038.129;  220.594; 9049.833; 0.00058
 842.26; 8662.245;  218.155; 8613.280;-0.00253
 842.82; 8294.026;  209.050; 8233.061;-0.00329
 843.39; 7916.142;  200.278; 7802.175;-0.00646
 843.95; 7526.257;  213.839; 7446.956;-0.00474
 844.51; 7142.039;  213.734; 7076.737;-0.00411
 845.07; 6779.487;  223.295; 6751.184;-0.00188
 845.63; 6497.935;  228.523; 6447.965;-0.00348
 846.19; 6246.384;  213.418; 6205.745;-0.00294
 846.75; 6110.166;  212.646; 6042.860;-0.00498
 847.32; 5899.614;  191.874; 5828.307;-0.00546
 847.88; 5692.396;  198.435; 5647.088;-0.00360
 848.44; 5441.511;  182.996; 5418.202;-0.00193
 849.00; 5312.960;  188.224; 5206.649;-0.00910
 849.56; 5202.742;  183.119; 5035.763;-0.01469
 850.12; 5100.190;  176.680; 4913.211;-0.01681
 850.68; 5014.639;  181.908; 4877.325;-0.01252
 851.24; 4950.754;  184.136; 4806.439;-0.01335
 851.80; 4918.536;  199.364; 4790.220;-0.01197
 852.37; 4848.984;  196.592; 4731.334;-0.01112
 852.93; 4773.099;  204.820; 4729.448;-0.00417
 853.49; 4725.214;  212.715; 4650.895;-0.00721
 854.05; 4701.329;  223.943; 4597.676;-0.01017
 854.61; 4676.445;  224.171; 4520.790;-0.01545
 855.17; 4675.560;  234.066; 4501.904;-0.01732
 855.73; 4657.008;  222.627; 4484.352;-0.01725
 856.29; 4665.790;  213.855; 4475.132;-0.01901
 856.85; 4637.239;  192.749; 4517.913;-0.01182
 857.41; 4690.020;  203.644; 4600.027;-0.00880
 857.97; 4737.802;  205.205; 4760.141; 0.00214
 858.53; 4859.251;  207.433; 4902.255; 0.00400
 859.09; 5038.366;  192.328; 5028.370;-0.00090
 859.65; 5307.481;  184.889; 5166.484;-0.01212
 860.21; 5640.596;  182.451; 5403.598;-0.01928
 860.77; 5964.045;  179.679; 5685.045;-0.02147
 861.33; 6336.826;  189.573; 6014.826;-0.02337
 861.89; 6677.942;  205.135; 6331.273;-0.02391
 862.45; 6963.723;  215.363; 6656.387;-0.02024
 863.01; 7254.839;  205.924; 6960.168;-0.01855
 863.57; 7547.954;  191.152; 7240.949;-0.01851
 864.13; 7893.736;  180.713; 7598.730;-0.01694
 864.69; 8263.851;  188.608; 7928.510;-0.01842
 865.25; 8703.966;  208.502; 8274.958;-0.02250
 865.81; 9057.081;  215.730; 8598.739;-0.02312
 866.37; 9358.196;  213.625; 8883.853;-0.02313
 866.93; 9613.978;  200.853; 9198.967;-0.01958
 867.49; 9914.426;  216.081; 9536.081;-0.01728
 868.05;10274.542;  210.642; 9849.195;-0.01875
 868.61;10591.657;  206.870;10116.309;-0.02035
 869.17;10950.772;  185.765;10306.090;-0.02682
 869.73;11223.554;  202.660;10652.537;-0.02311
 870.29;11533.336;  209.554;10985.985;-0.02152
 870.85;11788.784;  212.115;11316.099;-0.01810
 871.41;12141.899;  192.010;11700.213;-0.01636
 871.97;12526.681;  179.571;12032.994;-0.01772
 872.53;12924.463;  184.799;12414.108;-0.01776
 873.09;13298.245;  192.361;12748.222;-0.01862
 873.65;13681.360;  202.922;13125.336;-0.01830
 874.20;14171.475;  204.150;13530.783;-0.02039
 874.76;14515.808;  206.483;13844.450;-0.02087
 875.32;14787.475;  199.150;14344.450;-0.01339
 875.88;15064.142;  204.817;14722.117;-0.01011
 876.44;15559.475;  218.150;15059.450;-0.01439
 877.00;15982.475;  218.150;15358.117;-0.01755
 877.56;16351.475;  215.483;15696.450;-0.01800
 878.12;16591.475;  204.483;16104.450;-0.01310
 878.68;16868.475;  211.817;16344.450;-0.01388
 879.23;17165.475;  207.150;16637.783;-0.01373
 879.79;17461.475;  220.483;16875.783;-0.01501
 880.35;17743.808;  205.150;17127.117;-0.01555
 880.91;17971.142;  192.150;17367.783;-0.01499
 881.47;18169.142;  175.817;17611.783;-0.01367
 882.03;18489.808;  191.483;17929.783;-0.01350
 882.59;18773.808;  204.150;18199.450;-0.01364
 883.14;18996.142;  217.150;18423.117;-0.01346
 883.70;19183.142;  220.150;18492.117;-0.01612
 884.26;19259.475;  217.483;18606.117;-0.01516
 884.82;19255.142;  200.150;18627.783;-0.01454
 885.38;19152.475;  184.483;18693.783;-0.01063
 885.94;19207.475;  186.817;18692.783;-0.01191
 886.49;19310.475;  200.150;18759.783;-0.01270
 887.05;19356.475;  192.817;18819.450;-0.01234
 887.61;19231.142;  182.817;18766.450;-0.01073
 888.17;19073.808;  175.817;18655.450;-0.00972
 888.73;18943.475;  189.483;18492.450;-0.01057
 889.28;18727.475;  190.150;18251.117;-0.01131
 889.84;18597.808;  191.817;18020.450;-0.01384
 890.40;18403.808;  194.817;17792.450;-0.01483
 890.96;18270.475;  199.483;17628.450;-0.01571
 891.51;18156.475;  189.483;17470.117;-0.01692
 892.07;17979.142;  183.817;17244.117;-0.01832
 892.63;17849.142;  190.483;17036.783;-0.02045
 893.19;17554.142;  200.817;16880.117;-0.01720
 893.74;17397.475;  215.150;16772.783;-0.01608
 894.30;17207.142;  206.150;16671.450;-0.01390
 894.86;17123.808;  185.150;16510.450;-0.01602
 895.42;16988.808;  176.483;16397.450;-0.01555
 895.97;16913.808;  175.150;16362.450;-0.01455
 896.53;16866.808;  203.817;16299.450;-0.01504
 897.09;16770.142;  212.817;16258.117;-0.01364
 897.65;16668.475;  225.483;16079.783;-0.01583
 898.20;16634.475;  228.483;15994.117;-0.01729
 898.76;16641.142;  215.150;15888.117;-0.02038
 899.32;16615.142;  215.483;15824.450;-0.02146
 899.87;16464.142;  206.483;15765.117;-0.01909
 900.43;16303.142;  206.150;15631.783;-0.01850
 900.99;16175.475;  194.483;15508.450;-0.01852
 901.54;15943.475;  181.150;15319.450;-0.01754
 902.10;15724.475;  193.150;15133.117;-0.01686
 902.66;15486.808;  208.483;14918.117;-0.01647
 903.21;15394.808;  221.817;14754.117;-0.01874
 903.77;15218.475;  229.483;14588.450;-0.01865
 904.33;15037.808;  209.483;14443.783;-0.01776
 904.88;14889.142;  198.150;14329.783;-0.01686
 905.44;14798.142;  177.150;14293.450;-0.01526
 906.00;14797.475;  191.150;14324.117;-0.01431
 906.55;14748.475;  207.483;14294.117;-0.01379
 907.11;14635.475;  214.150;14239.117;-0.01210
 907.67;14421.142;  205.817;14016.117;-0.01255
 908.22;14246.475;  196.150;13855.783;-0.01225
 908.78;14169.475;  187.817;13715.783;-0.01433
 909.33;14079.808;  195.483;13616.783;-0.01473
 909.89;13981.808;  192.150;13488.783;-0.01581
 910.45;13866.808;  201.150;13406.783;-0.01487
 911.00;13766.142;  191.483;13362.117;-0.01312
 911.56;13675.808;  203.817;13272.117;-0.01321
 912.12;13568.808;  208.483;13101.117;-0.01548
 912.67;13464.475;  221.483;12951.117;-0.01717
 913.23;13298.808;  194.150;12807.450;-0.01660
 913.78;13142.475;  178.483;12651.783;-0.01676
 914.34;13061.142;  201.483;12642.117;-0.01439
 914.89;13003.808;  216.483;12543.117;-0.01594
 915.45;12933.142;  227.150;12558.117;-0.01301
 916.01;12788.475;  195.483;12386.117;-0.01410
 916.56;12642.142;  201.483;12282.450;-0.01274
 917.12;12545.475;  196.817;12063.117;-0.01730
 917.67;12379.475;  195.483;11981.117;-0.01444
 918.23;12247.475;  182.817;11944.450;-0.01105
 918.78;12153.808;  186.483;11927.117;-0.00831
 919.34;12125.808;  188.817;11843.783;-0.01038
 919.89;12054.808;  199.150;11694.117;-0.01342
 920.45;11911.808;  185.817;11531.783;-0.01431
 921.00;11783.142;  168.817;11330.783;-0.01725
 921.56;11621.808;  176.150;11296.783;-0.01251
 922.11;11457.142;  175.150;11154.450;-0.01181
 922.67;11278.475;  202.483;11048.450;-0.00911
 923.22;11150.808;  191.150;10815.450;-0.01350
 923.78;10999.142;  202.817;10632.117;-0.01502
 924.33;10899.808;  195.817;10497.117;-0.01665
 924.89;10774.808;  196.483;10361.117;-0.01733
 925.44;10622.808;  204.817;10248.117;-0.01591
 926.00;10380.808;  201.150;10018.783;-0.01573
 926.55;10166.475;  205.150; 9867.117;-0.01325
 927.11;10048.142;  188.150; 9720.450;-0.01468
 927.66;10006.475;  177.817; 9717.117;-0.01298
 928.22;10021.808;  174.483; 9670.783;-0.01576
 928.77;10064.142;  190.150; 9636.117;-0.01925
 929.33;10044.808;  204.150; 9587.783;-0.02065
 929.88; 9975.475;  205.150; 9516.450;-0.02090
 930.43; 9854.475;  182.483; 9493.450;-0.01652
 930.99; 9864.142;  174.817; 9470.117;-0.01803
 931.54; 9823.475;  167.150; 9456.783;-0.01681
 932.10; 9841.808;  190.150; 9473.117;-0.01692
 932.65; 9814.475;  197.150; 9480.117;-0.01537
 933.21; 9837.808;  198.483; 9496.450;-0.01566
 933.76; 9843.475;  187.483; 9472.117;-0.01703
 934.31; 9851.808;  183.150; 9454.117;-0.01824
 934.87; 9813.808;  190.150; 9433.783;-0.01750
 935.42; 9858.808;  199.483; 9431.450;-0.01965
 935.98; 9854.475;  195.483; 9388.450;-0.02148
 936.53; 9836.475;  193.817; 9335.450;-0.02317
 937.08; 9769.142;  191.150; 9347.783;-0.01954
 937.64; 9672.808;  197.817; 9356.783;-0.01473
 938.19; 9686.142;  196.483; 9425.117;-0.01211
 938.74; 9617.475;  199.817; 9340.117;-0.01298
 939.30; 9598.475;  187.150; 9339.783;-0.01210
 939.85; 9508.808;  186.483; 9209.783;-0.01416
 940.40; 9512.475;  173.817; 9251.783;-0.01230
 940.96; 9532.475;  187.150; 9238.450;-0.01388
 941.51; 9555.475;  189.483; 9244.783;-0.01465
 942.06; 9538.808;  197.150; 9160.450;-0.01796
 942.62; 9448.142;  184.817; 9036.783;-0.01973
 943.17; 9394.475;  195.150; 8966.450;-0.02069
 943.72; 9317.808;  180.483; 8903.117;-0.02017
 944.28; 9289.808;  199.483; 8795.117;-0.02430
 944.83; 9176.808;  184.150; 8766.783;-0.02027
 945.38; 9112.808;  194.483; 8735.117;-0.01879
 945.94; 9060.808;  186.483; 8804.450;-0.01273
 946.49; 9013.142;  205.150; 8772.783;-0.01202
 947.04; 8977.142;  208.817; 8738.117;-0.01200
 947.60; 8915.808;  215.150; 8638.117;-0.01409
 948.15; 8894.475;  203.483; 8519.117;-0.01917
 948.70; 8741.142;  212.817; 8413.783;-0.01700
 949.25; 8615.475;  206.150; 8325.117;-0.01526
 949.81; 8530.808;  208.817; 8271.117;-0.01377
 950.36; 8447.475;  198.483; 8157.117;-0.01556
 950.91; 8271.475;  207.150; 8037.783;-0.01277
 951.46; 8048.142;  203.817; 7873.117;-0.00980
 952.02; 7894.475;  207.150; 7734.117;-0.00916
 952.57; 7810.142;  207.150; 7606.450;-0.01179
 953.12; 7730.475;  218.483; 7526.117;-0.01198
 953.67; 7658.475;  218.150; 7443.783;-0.01272
 954.23; 7609.475;  215.817; 7359.450;-0.01494
 954.78; 7480.142;  208.150; 7234.450;-0.01493
 955.33; 7302.808;  218.150; 7119.783;-0.01137
 955.88; 7166.808;  217.150; 6980.117;-0.01183
 956.44; 7096.142;  230.483; 6838.450;-0.01661
 956.99; 7070.808;  228.817; 6737.117;-0.02171
 957.54; 7031.475;  223.817; 6672.783;-0.02351
 958.09; 6942.142;  222.150; 6636.783;-0.02020
 958.64; 6846.808;  206.817; 6607.450;-0.01594
 959.20; 6738.808;  203.483; 6532.450;-0.01393
 959.75; 6732.142;  199.817; 6496.450;-0.01596
 960.30; 6733.142;  218.150; 6441.783;-0.01987
 960.85; 6759.808;  225.150; 6424.450;-0.02288
 961.40; 6756.142;  228.817; 6381.117;-0.02570
 961.95; 6763.475;  231.817; 6360.783;-0.02764
 962.51; 6722.808;  239.483; 6360.117;-0.02500
 963.06; 6710.475;  242.817; 6380.117;-0.02277
 963.61; 6663.808;  234.150; 6314.783;-0.02424
 964.16; 6621.475;  235.150; 6258.450;-0.02542
 964.71; 6602.475;  222.483; 6212.117;-0.02742
 965.26; 6632.142;  213.150; 6253.117;-0.02643
 965.81; 6668.475;  210.817; 6289.117;-0.02629
 966.36; 6669.808;  208.483; 6323.783;-0.02390
 966.92; 6634.142;  216.150; 6305.117;-0.02286
 967.47; 6642.142;  218.483; 6338.117;-0.02106
 968.02; 6653.142;  232.483; 6354.117;-0.02071
 968.57; 6675.808;  234.817; 6375.450;-0.02074
 969.12; 6695.808;  219.817; 6368.783;-0.02250
 969.67; 6673.808;  204.483; 6420.783;-0.01733
 970.22; 6741.808;  194.150; 6469.783;-0.01843
 970.77; 6826.475;  199.817; 6539.117;-0.01925
 971.32; 6980.475;  197.483; 6593.117;-0.02554
 971.87; 7063.142;  198.817; 6693.117;-0.02407
 972.42; 7160.142;  215.150; 6793.117;-0.02358
 972.98; 7225.475;  220.817; 6908.783;-0.02009
 973.53; 7315.142;  231.483; 6996.117;-0.02001
 974.08; 7347.475;  215.483; 7040.450;-0.01911
 974.63; 7434.808;  223.483; 7078.450;-0.02201
 975.18; 7549.475;  218.483; 7103.117;-0.02728
 975.73; 7618.142;  224.817; 7157.450;-0.02794
 976.28; 7635.142;  221.483; 7219.117;-0.02508
 976.83; 7654.475;  221.483; 7315.450;-0.02027
 977.38; 7669.475;  219.483; 7373.783;-0.01759
 977.93; 7672.808;  222.150; 7387.450;-0.01696
 978.48; 7681.142;  228.483; 7365.783;-0.01878
 979.03; 7719.142;  234.817; 7358.117;-0.02147
 979.58; 7772.808;  221.483; 7329.117;-0.02630
 980.13; 7728.475;  207.150; 7367.783;-0.02134
 980.68; 7667.475;  186.483; 7310.450;-0.02124
 981.23; 7558.142;  185.817; 7278.117;-0.01682
 981.78; 7531.142;  207.150; 7207.450;-0.01963
 982.33; 7480.475;  219.150; 7257.117;-0.01357
 982.88; 7461.142;  232.483; 7211.783;-0.01525
 983.43; 7399.808;  218.150; 7145.783;-0.01564
 983.98; 7358.475;  215.150; 6984.117;-0.02338
 984.53; 7286.808;  203.817; 6873.450;-0.02611
 985.08; 7248.808;  209.817; 6835.783;-0.02626
 985.63; 7187.808;  211.150; 6787.117;-0.02569
 986.18; 7118.475;  218.817; 6756.783;-0.02338
 986.73; 6955.142;  218.483; 6610.450;-0.02281
 987.27; 6878.808;  227.483; 6521.117;-0.02401
 987.82; 6773.142;  238.483; 6431.783;-0.02330
 988.37; 6769.475;  243.150; 6400.783;-0.02525
 988.92; 6652.808;  234.150; 6351.117;-0.02091
 989.47; 6583.142;  214.483; 6285.117;-0.02081
 990.02; 6492.142;  208.483; 6199.117;-0.02074
 990.57; 6445.808;  208.150; 6083.117;-0.02602
 991.12; 6372.808;  215.150; 6044.450;-0.02380
 991.67; 6283.808;  213.817; 5969.117;-0.02312
 992.22; 6146.475;  200.483; 5915.450;-0.01721
 992.77; 6090.808;  200.150; 5802.450;-0.02180
 993.31; 5973.808;  204.817; 5735.783;-0.01830
 993.86; 5938.475;  230.483; 5683.783;-0.01982
 994.41; 5825.475;  235.150; 5580.117;-0.01949
 994.96; 5714.142;  226.483; 5473.117;-0.01951
 995.51; 5592.475;  218.817; 5377.783;-0.01771
 996.06; 5501.808;  208.483; 5293.783;-0.01741
 996.61; 5436.142;  222.483; 5201.783;-0.01997
 997.15; 5354.142;  236.150; 5083.450;-0.02360
 997.70; 5242.475;  241.150; 4965.117;-0.02478
 998.25; 5127.475;  247.483; 4873.450;-0.02322
 998.80; 4980.808;  248.483; 4740.117;-0.02267
 999.35; 4812.808;  249.483; 4623.450;-0.01841
 999.90; 4647.808;  236.150; 4455.117;-0.01940
1000.44; 4492.808;  224.483; 4340.450;-0.01579
1000.99; 4382.475;  232.483; 4190.783;-0.02054
1001.54; 4263.142;  237.150; 4067.450;-0.02164
1002.09; 4157.808;  231.817; 3939.117;-0.02489
1002.64; 4058.808;  238.483; 3855.450;-0.02376
1003.18; 3972.142;  240.483; 3766.783;-0.02458
1003.73; 3893.475;  238.483; 3661.450;-0.02848
1004.28; 3785.142;  226.817; 3584.450;-0.02521
1004.83; 3671.142;  209.483; 3488.117;-0.02359
1005.38; 3586.475;  210.150; 3420.783;-0.02185
1005.92; 3503.142;  219.150; 3321.783;-0.02467
1006.47; 3406.475;  236.817; 3231.783;-0.02462
1007.02; 3308.808;  235.483; 3140.117;-0.02452
1007.57; 3236.475;  222.817; 3087.450;-0.02202
1008.11; 3203.475;  211.817; 3028.450;-0.02618
1008.66; 3137.142;  205.150; 2973.450;-0.02495
1009.21; 3060.142;  192.483; 2907.783;-0.02371
1009.75; 2964.475;  177.817; 2862.117;-0.01625
1010.30; 2887.808;  170.150; 2793.117;-0.01540
1010.85; 2821.808;  176.817; 2712.783;-0.01828
1011.40; 2768.142;  204.150; 2628.450;-0.02433
1011.94; 2717.475;  221.817; 2545.783;-0.03096
1012.49; 2646.475;  216.483; 2464.450;-0.03381
1013.04; 2548.808;  194.150; 2362.117;-0.03588
1013.58; 2427.808;  184.150; 2325.117;-0.02035
1014.13; 2333.475;  188.483; 2268.117;-0.01344
1014.68; 2252.142;  196.483; 2233.450;-0.00397
1015.23; 2202.142;  203.150; 2181.450;-0.00452
1015.77; 2160.808;  199.817; 2113.117;-0.01069
1016.32; 2150.808;  204.817; 2072.450;-0.01785
1016.87; 2132.808;  209.483; 2012.783;-0.02798
1017.41; 2093.475;  206.817; 1977.450;-0.02756
1017.96; 2041.808;  194.817; 1953.450;-0.02129
1018.50; 1989.808;  186.483; 1926.450;-0.01553
1019.05; 1953.475;  188.483; 1903.450;-0.01249
1019.60; 1881.808;  182.817; 1815.783;-0.01721
1020.14; 1835.475;  196.150; 1752.783;-0.02248
1020.69; 1788.808;  196.150; 1698.117;-0.02546
1021.24; 1750.142;  209.483; 1650.450;-0.02905
1021.78; 1694.808;  188.483; 1620.450;-0.02199
1022.33; 1628.475;  190.150; 1592.450;-0.01102
1022.87; 1574.808;  182.817; 1587.783; 0.00403
1023.42; 1544.142;  198.150; 1567.117; 0.00735
1023.97; 1510.142;  200.150; 1516.117; 0.00198
1024.51; 1513.142;  212.150; 1465.117;-0.01633
1025.06; 1468.475;  200.483; 1401.117;-0.02371
1025.60; 1454.808;  198.817; 1340.783;-0.04133
1026.15; 1404.142;  181.150; 1307.783;-0.03564
1026.70; 1369.808;  185.483; 1284.783;-0.03235
1027.24; 1320.142;  195.483; 1279.783;-0.01587
1027.79; 1297.808;  200.483; 1270.450;-0.01097
1028.33; 1281.142;  197.483; 1252.450;-0.01165
1028.88; 1249.142;  188.817; 1215.450;-0.01402
1029.42; 1212.475;  208.150; 1198.450;-0.00611
1029.97; 1175.475;  197.817; 1156.450;-0.00853
1030.51; 1168.142;  190.150; 1127.117;-0.01861
1031.06; 1164.475;  182.817; 1088.783;-0.03485
1031.61; 1134.475;  192.483; 1063.117;-0.03421
1032.15; 1106.808;  210.150; 1050.450;-0.02819
1032.70; 1073.808;  202.817; 1024.117;-0.02551
1033.24; 1074.808;  206.483; 1018.117;-0.02932
1033.79; 1064.475;  200.817; 1020.450;-0.02272
1034.33; 1066.808;  199.817; 1016.450;-0.02599
1034.88; 1051.142;  201.817; 1008.783;-0.02222
1035.42; 1013.142;  202.817;  979.450;-0.01844
1035.97;  975.475;  204.483;  950.450;-0.01433
1036.51;  963.475;  206.483;  931.450;-0.01877
1037.06;  966.808;  200.817;  944.117;-0.01306
1037.60;  965.808;  207.150;  948.783;-0.00986
1038.14;  942.808;  204.150;  928.783;-0.00833
1038.69;  964.475;  222.150;  927.783;-0.02201
1039.23;  987.808;  234.483;  935.783;-0.03108
1039.78; 1008.808;  235.150;  948.783;-0.03507
1040.32;  971.142;  224.483;  915.783;-0.03346
1040.87;  942.808;  208.483;  887.117;-0.03425
1041.41;  927.808;  198.150;  864.117;-0.03967
1041.96;  940.808;  200.817;  882.783;-0.03546
1042.50;  944.142;  197.817;  893.117;-0.03076
1043.04;  943.808;  213.817;  899.117;-0.02744
1043.59;  936.142;  217.150;  867.450;-0.04361
1044.13;  917.142;  212.483;  869.450;-0.03044
1044.68;  883.142;  205.817;  862.117;-0.01369
1045.22;  880.142;  199.150;  873.783;-0.00407
1045.76;  856.808;  201.817;  869.450; 0.00830
1046.31;  868.808;  193.483;  861.783;-0.00454
1046.85;  843.475;  200.483;  842.117;-0.00092
1047.40;  837.808;  202.483;  813.783;-0.01674
1047.94;  826.475;  215.150;  808.783;-0.01275
1048.48;  818.142;  211.150;  810.117;-0.00578
1049.03;  818.142;  214.483;  793.450;-0.01814
1049.57;  820.808;  229.150;  787.117;-0.02546
1050.11;  826.475;  222.817;  774.117;-0.03940
1050.66;  792.808;  218.483;  779.117;-0.01048
1051.20;  781.142;  206.483;  794.450; 0.00994
1051.74;  753.808;  200.817;  788.117; 0.02614
1052.29;  757.808;  200.150;  780.783; 0.01753
1052.83;  742.808;  199.150;  748.117; 0.00422
1053.37;  754.142;  224.817;  744.783;-0.00775
1053.92;  757.475;  234.150;  739.783;-0.01494
1054.46;  759.142;  236.483;  734.117;-0.02131
1055.00;  762.475;  231.483;  739.117;-0.01954
1055.55;  777.142;  230.817;  738.117;-0.03219
1056.09;  756.142;  223.817;  747.783;-0.00687
1056.63;  738.475;  215.817;  711.783;-0.02277
1057.17;  719.808;  216.483;  709.117;-0.00932
1057.72;  738.142;  225.150;  697.450;-0.03589
1058.26;  726.808;  223.483;  705.783;-0.01853
1058.80;  721.808;  229.817;  700.450;-0.01928
1059.35;  705.475;  230.483;  686.450;-0.01775
1059.89;  684.808;  230.150;  672.450;-0.01197
1060.43;  658.475;  227.817;  654.783;-0.00374
1060.97;  640.808;  223.817;  667.117; 0.02657
1061.52;  658.808;  231.150;  682.450; 0.02337
1062.06;  669.475;  231.483;  671.450; 0.00195
1062.60;  655.808;  236.483;  658.450; 0.00273
1063.14;  647.475;  232.483;  640.783;-0.00706
1063.69;  630.475;  216.483;  640.117; 0.01000
1064.23;  646.808;  208.817;  619.783;-0.02766
1064.77;  630.808;  200.483;  598.450;-0.03395
1065.31;  634.808;  201.817;  577.450;-0.06172
1065.85;  620.808;  206.483;  567.117;-0.06028
1066.40;  616.808;  205.150;  579.450;-0.04132
1066.94;  603.475;  217.817;  579.117;-0.02833
1067.48;  585.475;  209.150;  587.783; 0.00266
1068.02;  591.475;  233.817;  562.450;-0.03676
1068.56;  577.808;  216.817;  564.783;-0.01596
1069.10;  584.475;  212.817;  549.783;-0.04256
1069.65;  569.808;  195.817;  566.450;-0.00392
1070.19;  572.808;  208.817;  566.783;-0.00725
1070.73;  568.475;  223.817;  582.783; 0.01767
1071.27;  563.808;  215.817;  567.117; 0.00411
1071.81;  550.475;  207.150;  562.117; 0.01448
1072.35;  555.142;  201.817;  549.117;-0.00747
1072.90;  547.808;  197.150;  546.783;-0.00127
1073.44;  555.808;  202.817;  540.117;-0.01975
1073.98;  531.475;  206.150;  531.450;-0.00003
1074.52;  544.142;  224.483;  538.783;-0.00734
1075.06;  545.808;  218.483;  542.450;-0.00448
1075.60;  545.475;  207.483;  531.450;-0.01841
1076.14;  536.142;  204.817;  514.117;-0.02987
1076.68;  532.475;  207.150;  504.450;-0.03912
1077.22;  530.142;  225.817;  504.783;-0.03779
1077.76;  517.808;  214.817;  498.117;-0.02918
1078.31;  500.475;  229.817;  499.783;-0.00111
1078.85;  500.475;  226.483;  517.117; 0.02561
1079.39;  504.475;  243.817;  525.450; 0.03361
1079.93;  519.808;  237.817;  507.783;-0.01893
1080.47;  526.142;  227.483;  476.450;-0.07903
1081.01;  513.475;  216.150;  474.783;-0.06055
1081.55;  518.142;  208.483;  488.783;-0.04326
1082.09;  499.475;  205.817;  488.783;-0.01611
1082.63;  515.142;  210.150;  496.450;-0.02747
1083.17;  507.808;  221.150;  500.783;-0.01078
1083.71;  522.808;  228.817;  501.450;-0.03276
1084.25;  491.808;  224.483;  471.117;-0.03499
1084.79;  469.142;  214.483;  446.450;-0.04053
1085.33;  461.142;  202.817;  450.783;-0.01777
1085.87;  472.808;  199.483;  468.450;-0.00698
1086.41;  483.475;  214.483;  471.450;-0.01986
1086.95;  482.475;  222.150;  467.117;-0.02641
1087.49;  488.475;  225.817;  454.783;-0.05962
1088.03;  490.475;  216.817;  454.117;-0.06191
1088.57;  477.808;  219.817;  450.783;-0.04806
1089.11;  472.475;  222.150;  448.117;-0.04446
1089.65;  475.475;  233.150;  458.783;-0.03099
1090.19;  482.475;  238.483;  468.117;-0.02634
1090.73;  477.475;  240.483;  471.783;-0.01056
1091.27;  478.475;  238.817;  466.117;-0.02299
1091.81;  463.142;  238.483;  458.117;-0.00982
1092.35;  468.142;  247.483;  461.450;-0.01337
1092.89;  448.808;  232.150;  457.450; 0.01699
1093.43;  454.142;  223.817;  445.783;-0.01605
1093.97;  449.142;  210.150;  441.117;-0.01483
1094.51;  445.475;  208.483;  440.450;-0.00931
1095.04;  450.808;  218.483;  442.783;-0.01527
1095.58;  463.808;  238.817;  436.783;-0.05557
1096.12;  479.142;  242.817;  428.783;-0.10407
1096.66;  470.475;  239.817;  430.450;-0.08277
1097.20;  449.475;  235.817;  449.450;-0.00005
1097.74;  446.142;  246.817;  456.783; 0.02259
1098.28;  439.475;  235.817;  457.117; 0.03608
1098.82;  437.142;  230.483;  453.117; 0.03234
1099.36;  439.475;  228.150;  446.450; 0.01410
1099.89;  452.142;  230.150;  447.450;-0.00928

