
Integration time [ms]:   0.300
Averaging Nr. [scans]: 1
Smoothing Nr. [pixels]: 1
Data measured with spectrometer [name]: 1906252U1
Wave   ;Sample   ;Dark     ;Reference;Absorbance
[nm]   ;[counts] ;[counts] ;[counts] ;[A.U]

 161.30;  268.097;  271.207;  271.637; 0.00000
 161.90;  260.494;  265.524;  261.712; 0.00000
 162.51;  263.877;  259.038;  260.433;-0.54043
 163.11;  269.281;  265.693;  251.834; 0.00000
 163.71;  283.582;  276.696;  266.803; 0.00000
 164.31;  281.597;  294.270;  273.488; 0.00000
 164.91;  273.855;  288.393;  287.410; 0.00000
 165.52;  266.043;  277.299;  279.261; 5.00000
 166.12;  274.172;  271.979;  273.718;-0.10077
 166.72;  270.543;  272.971;  259.755; 0.00000
 167.32;  272.494;  271.656;  271.040; 0.00000
 167.93;  259.975;  261.266;  267.518; 5.00000
 168.53;  256.085;  254.112;  260.296; 0.49621
 169.13;  254.381;  264.427;  257.261; 0.00000
 169.73;  261.805;  271.677;  266.351; 0.00000
 170.33;  294.327;  291.614;  320.561; 1.02823
 170.94;  307.804;  317.756;  347.746; 5.00000
 171.54;  328.937;  335.278;  387.239; 5.00000
 172.14;  329.567;  338.926;  375.538; 5.00000
 172.74;  339.546;  324.358;  373.181; 0.50711
 173.34;  325.932;  319.589;  355.569; 0.75374
 173.95;  314.954;  309.596;  343.923; 0.80664
 174.55;  323.592;  318.289;  355.228; 0.84291
 175.15;  334.852;  320.689;  367.155; 0.51597
 175.75;  349.562;  322.370;  380.195; 0.32768
 176.35;  347.064;  332.415;  382.036; 0.52984
 176.95;  354.263;  327.740;  392.907; 0.39040
 177.56;  332.377;  327.608;  398.355; 1.17133
 178.16;  330.323;  316.738;  399.298; 0.78372
 178.76;  332.516;  316.306;  398.487; 0.70499
 179.36;  355.043;  310.874;  401.343; 0.31139
 179.96;  351.514;  304.800;  395.813; 0.28965
 180.56;  345.669;  308.938;  392.969; 0.35941
 181.17;  346.143;  318.009;  403.448; 0.48242
 181.77;  359.541;  318.897;  417.181; 0.38348
 182.37;  374.472;  306.653;  404.111; 0.15747
 182.97;  390.150;  319.309;  413.789; 0.12506
 183.57;  411.973;  323.525;  427.944; 0.07209
 184.17;  430.135;  336.736;  473.104; 0.16437
 184.78;  440.286;  316.624;  484.587; 0.13298
 185.38;  437.864;  315.012;  504.833; 0.18896
 185.98;  434.998;  315.783;  504.638; 0.19980
 186.58;  445.808;  316.598;  510.449; 0.17617
 187.18;  455.369;  313.002;  491.678; 0.09866
 187.78;  482.760;  324.256;  526.070; 0.10491
 188.38;  485.850;  331.840;  541.159; 0.13326
 188.98;  491.222;  337.804;  574.199; 0.18776
 189.59;  486.223;  332.575;  567.529; 0.18446
 190.19;  498.409;  326.870;  580.708; 0.17020
 190.79;  497.971;  326.914;  573.939; 0.15960
 191.39;  483.647;  317.159;  564.285; 0.17154
 191.99;  466.727;  322.498;  545.363; 0.18899
 192.59;  467.629;  317.307;  539.929; 0.17055
 193.19;  460.408;  313.765;  525.712; 0.15997
 193.79;  456.308;  325.164;  530.280; 0.19425
 194.39;  434.691;  328.250;  517.658; 0.25029
 195.00;  425.844;  327.216;  511.139; 0.27064
 195.60;  405.101;  305.566;  480.732; 0.24547
 196.20;  401.172;  304.088;  469.473; 0.23135
 196.80;  405.023;  305.278;  453.989; 0.17345
 197.40;  409.218;  313.686;  455.186; 0.17061
 198.00;  403.153;  320.693;  452.457; 0.20355
 198.60;  389.975;  317.270;  442.943; 0.23768
 199.20;  378.881;  312.435;  427.513; 0.23852
 199.80;  375.125;  303.957;  416.753; 0.20001
 200.40;  360.239;  299.492;  396.868; 0.20492
 201.00;  350.469;  293.841;  371.434; 0.13679
 201.60;  337.103;  292.845;  340.403; 0.03123
 202.21;  332.273;  298.995;  352.240; 0.20412
 202.81;  327.920;  303.760;  367.883; 0.42392
 203.41;  326.294;  301.801;  377.921; 0.49246
 204.01;  322.650;  296.447;  373.611; 0.46906
 204.61;  325.507;  287.965;  374.799; 0.36417
 205.21;  318.373;  280.528;  391.328; 0.46653
 205.81;  326.280;  276.000;  394.567; 0.37256
 206.41;  323.712;  281.190;  389.667; 0.40672
 207.01;  321.558;  291.585;  373.516; 0.43673
 207.61;  300.594;  290.832;  349.221; 0.77681
 208.21;  297.462;  294.007;  340.088; 1.12503
 208.81;  308.423;  285.376;  350.048; 0.44811
 209.41;  309.329;  292.971;  355.294; 0.58092
 210.01;  303.532;  286.985;  361.835; 0.65548
 210.61;  299.688;  290.534;  351.990; 0.82695
 211.21;  302.587;  293.399;  356.219; 0.83485
 211.81;  309.632;  300.157;  352.258; 0.74026
 212.41;  293.887;  301.896;  344.513; 5.00000
 213.01;  305.327;  296.332;  351.625; 0.78864
 213.61;  304.374;  285.263;  357.339; 0.57651
 214.21;  312.782;  282.939;  368.411; 0.45698
 214.81;  306.428;  278.704;  361.387; 0.47456
 215.41;  308.687;  282.466;  362.645; 0.48541
 216.01;  310.563;  278.247;  362.189; 0.41455
 216.61;  301.498;  287.920;  357.792; 0.71147
 217.21;  295.094;  290.599;  357.391; 1.17200
 217.81;  297.172;  297.221;  367.800; 5.00000
 218.41;  309.786;  301.628;  379.081; 0.97745
 219.01;  309.208;  307.801;  388.505; 1.75874
 219.61;  304.275;  301.739;  384.906; 1.51575
 220.21;  300.214;  297.568;  378.507; 1.48552
 220.81;  308.421;  283.737;  372.713; 0.55685
 221.41;  328.065;  284.091;  376.024; 0.32027
 222.01;  335.759;  280.426;  372.049; 0.21902
 222.61;  340.158;  298.953;  367.451; 0.22073
 223.21;  327.470;  301.813;  357.103; 0.33344
 223.81;  332.045;  301.952;  360.676; 0.29035
 224.41;  324.662;  281.875;  343.618; 0.15928
 225.01;  317.297;  269.317;  340.250; 0.16979
 225.61;  316.076;  274.108;  341.033; 0.20267
 226.21;  311.957;  273.112;  349.918; 0.29607
 226.81;  306.879;  286.490;  349.175; 0.48777
 227.41;  306.653;  284.059;  344.282; 0.42577
 228.01;  316.615;  302.172;  351.241; 0.53116
 228.61;  339.519;  306.727;  360.474; 0.21458
 229.21;  335.412;  303.825;  362.700; 0.27042
 229.81;  340.833;  308.998;  372.791; 0.30186
 230.41;  315.772;  299.055;  383.396; 0.70289
 231.01;  317.649;  300.808;  405.942; 0.79538
 231.61;  309.469;  287.307;  401.095; 0.71050
 232.21;  319.866;  300.328;  383.489; 0.62904
 232.81;  305.642;  296.307;  370.928; 0.90276
 233.41;  312.043;  302.578;  372.995; 0.87158
 234.00;  305.628;  298.240;  379.918; 1.04354
 234.60;  307.665;  290.487;  363.623; 0.62916
 235.20;  294.638;  295.152;  359.264; 5.00000
 235.80;  300.473;  295.330;  365.432; 1.13447
 236.40;  316.087;  302.765;  379.044; 0.75783
 237.00;  319.864;  303.584;  384.824; 0.69810
 237.60;  330.021;  294.000;  377.651; 0.36592
 238.20;  323.918;  295.121;  389.214; 0.51420
 238.80;  322.710;  274.112;  389.668; 0.37618
 239.40;  317.116;  279.177;  403.402; 0.51513
 240.00;  322.687;  284.599;  402.640; 0.49125
 240.59;  320.020;  298.133;  401.312; 0.67339
 241.19;  330.452;  297.989;  399.745; 0.49618
 241.79;  315.423;  288.710;  384.715; 0.55557
 242.39;  316.952;  292.222;  383.909; 0.56910
 242.99;  297.162;  286.642;  375.121; 0.92482
 243.59;  301.467;  289.230;  388.763; 0.91029
 244.19;  307.266;  286.160;  385.560; 0.67298
 244.79;  321.029;  287.511;  384.652; 0.46212
 245.39;  332.932;  287.293;  395.554; 0.37513
 245.98;  332.498;  273.053;  391.453; 0.29924
 246.58;  334.665;  274.487;  389.290; 0.28052
 247.18;  336.402;  285.342;  384.364; 0.28764
 247.78;  334.133;  295.696;  398.758; 0.42834
 248.38;  338.872;  288.656;  421.162; 0.42139
 248.98;  327.359;  277.356;  419.988; 0.45522
 249.58;  335.042;  265.673;  430.671; 0.37631
 250.17;  339.217;  275.285;  426.842; 0.37485
 250.77;  340.009;  283.143;  431.967; 0.41782
 251.37;  327.460;  286.929;  425.089; 0.53259
 251.97;  319.846;  270.293;  429.805; 0.50772
 252.57;  319.593;  265.298;  436.882; 0.49972
 253.17;  332.546;  272.929;  449.172; 0.47074
 253.77;  338.658;  284.186;  466.282; 0.52413
 254.36;  347.822;  295.474;  468.774; 0.51990
 254.96;  341.947;  295.333;  480.567; 0.59920
 255.56;  330.014;  288.604;  484.301; 0.67447
 256.16;  339.226;  278.462;  506.509; 0.57438
 256.76;  333.492;  277.524;  496.109; 0.59169
 257.36;  337.320;  276.735;  508.603; 0.58287
 257.95;  314.098;  264.992;  503.713; 0.68675
 258.55;  318.801;  264.239;  518.084; 0.66768
 259.15;  330.506;  260.564;  510.454; 0.55301
 259.75;  340.382;  269.345;  523.998; 0.55446
 260.35;  347.693;  267.461;  538.318; 0.52839
 260.94;  333.465;  268.819;  539.764; 0.62234
 261.54;  338.807;  275.530;  547.771; 0.63371
 262.14;  335.465;  279.723;  553.422; 0.69109
 262.74;  346.550;  296.084;  592.169; 0.76842
 263.34;  346.647;  285.302;  604.600; 0.71641
 263.93;  339.916;  271.414;  619.201; 0.70561
 264.53;  340.832;  269.158;  628.783; 0.70049
 265.13;  333.610;  270.950;  628.566; 0.75642
 265.73;  335.179;  275.426;  648.466; 0.79540
 266.33;  349.447;  278.566;  678.397; 0.75135
 266.92;  350.059;  275.029;  689.673; 0.74244
 267.52;  349.444;  279.954;  705.726; 0.78726
 268.12;  325.993;  273.264;  717.281; 0.92535
 268.72;  324.551;  281.951;  749.175; 1.04012
 269.31;  341.546;  293.596;  782.505; 1.00843
 269.91;  348.396;  296.813;  783.686; 0.97491
 270.51;  361.464;  298.884;  823.747; 0.92361
 271.11;  348.404;  296.018;  844.685; 1.02010
 271.70;  359.735;  281.274;  877.686; 0.88089
 272.30;  356.634;  270.568;  887.924; 0.85570
 272.90;  365.457;  264.784;  909.412; 0.80639
 273.50;  367.237;  274.785;  916.521; 0.84144
 274.09;  367.919;  285.359;  947.539; 0.90421
 274.69;  367.732;  293.425;  961.690; 0.95392
 275.29;  342.419;  297.126; 1011.041; 1.19761
 275.89;  349.219;  301.162; 1057.168; 1.19677
 276.48;  354.088;  306.441; 1108.365; 1.22610
 277.08;  377.389;  303.217; 1149.330; 1.05718
 277.68;  387.319;  300.562; 1156.928; 0.99436
 278.28;  405.133;  297.934; 1188.748; 0.91959
 278.87;  416.597;  305.120; 1219.213; 0.91380
 279.47;  437.407;  316.402; 1279.019; 0.90065
 280.07;  439.259;  311.564; 1306.537; 0.89164
 280.66;  439.526;  305.599; 1329.806; 0.88352
 281.26;  431.660;  299.502; 1356.605; 0.90302
 281.86;  442.184;  299.353; 1408.460; 0.89015
 282.46;  456.722;  289.111; 1464.667; 0.84594
 283.05;  477.233;  270.001; 1525.842; 0.78248
 283.65;  485.640;  269.267; 1577.248; 0.78140
 284.25;  492.088;  276.537; 1628.707; 0.79748
 284.84;  486.862;  297.639; 1660.819; 0.85758
 285.44;  510.731;  304.585; 1722.349; 0.83743
 286.04;  524.352;  306.626; 1767.304; 0.82664
 286.63;  555.595;  299.604; 1827.551; 0.77588
 287.23;  561.627;  285.934; 1878.582; 0.76169
 287.83;  591.351;  285.987; 1956.635; 0.73807
 288.42;  609.176;  282.947; 2012.456; 0.72440
 289.02;  635.737;  281.018; 2081.351; 0.70547
 289.62;  640.418;  274.153; 2105.373; 0.69895
 290.21;  666.593;  278.965; 2173.882; 0.68917
 290.81;  694.215;  296.139; 2171.832; 0.67320
 291.41;  735.328;  301.675; 2217.279; 0.64516
 292.00;  725.306;  287.695; 2273.257; 0.65680
 292.60;  736.290;  266.816; 2355.570; 0.64828
 293.20;  743.671;  269.053; 2441.953; 0.66070
 293.79;  782.920;  275.331; 2498.541; 0.64147
 294.39;  798.506;  284.326; 2544.463; 0.64302
 294.99;  815.807;  280.435; 2588.095; 0.63452
 295.58;  832.344;  284.687; 2619.961; 0.62983
 296.18;  865.287;  271.100; 2672.236; 0.60649
 296.78;  898.908;  267.474; 2741.524; 0.59308
 297.37;  955.295;  256.039; 2819.912; 0.56426
 297.97;  968.825;  255.858; 2927.442; 0.57370
 298.57; 1014.939;  262.727; 2989.557; 0.55932
 299.16; 1034.166;  278.359; 3083.789; 0.56959
 299.76; 1086.409;  281.775; 3176.366; 0.55599
 300.35; 1111.410;  281.214; 3269.362; 0.55622
 300.95; 1144.841;  278.404; 3324.462; 0.54600
 301.55; 1183.553;  287.229; 3346.846; 0.53320
 302.14; 1231.404;  278.314; 3431.366; 0.51960
 302.74; 1272.234;  277.164; 3537.862; 0.51546
 303.33; 1312.948;  277.506; 3665.575; 0.51483
 303.93; 1348.992;  284.053; 3763.621; 0.51420
 304.53; 1410.779;  290.889; 3809.743; 0.49723
 305.12; 1451.774;  285.666; 3889.067; 0.48997
 305.72; 1505.123;  304.345; 3962.749; 0.48383
 306.31; 1513.865;  292.556; 4062.826; 0.48955
 306.91; 1547.945;  290.122; 4183.574; 0.49072
 307.51; 1626.107;  280.000; 4278.734; 0.47284
 308.10; 1691.423;  295.710; 4394.048; 0.46781
 308.70; 1725.452;  291.190; 4468.751; 0.46429
 309.29; 1700.855;  287.634; 4547.826; 0.47922
 309.89; 1737.708;  264.902; 4638.675; 0.47271
 310.48; 1800.129;  273.673; 4739.754; 0.46624
 311.08; 1876.491;  268.620; 4876.118; 0.45721
 311.68; 1922.752;  273.221; 4959.384; 0.45346
 312.27; 1986.648;  278.703; 5074.278; 0.44837
 312.87; 2021.888;  271.869; 5225.848; 0.45191
 313.46; 2087.719;  276.691; 5385.013; 0.45035
 314.06; 2125.259;  276.193; 5529.885; 0.45351
 314.65; 2205.268;  282.238; 5632.559; 0.44439
 315.25; 2232.299;  283.262; 5774.255; 0.44983
 315.85; 2304.254;  277.637; 5914.876; 0.44429
 316.44; 2335.983;  287.913; 6071.938; 0.45089
 317.04; 2419.031;  295.255; 6216.984; 0.44534
 317.63; 2500.385;  310.823; 6400.341; 0.44423
 318.23; 2603.002;  298.737; 6546.296; 0.43318
 318.82; 2667.258;  293.221; 6674.883; 0.42945
 319.42; 2707.589;  273.276; 6781.545; 0.42709
 320.01; 2742.685;  280.055; 6929.646; 0.43140
 320.61; 2821.696;  290.511; 7164.652; 0.43389
 321.20; 2887.991;  285.758; 7272.939; 0.42896
 321.80; 2968.099;  292.860; 7497.718; 0.43026
 322.39; 3040.245;  275.154; 7636.540; 0.42525
 322.99; 3100.592;  275.755; 7857.556; 0.42878
 323.58; 3185.240;  286.597; 7977.531; 0.42378
 324.18; 3254.054;  287.901; 8124.673; 0.42194
 324.77; 3293.724;  292.485; 8318.013; 0.42717
 325.37; 3360.877;  278.984; 8442.167; 0.42304
 325.96; 3396.671;  276.253; 8588.958; 0.42553
 326.56; 3529.141;  298.768; 8771.095; 0.41875
 327.15; 3562.821;  300.036; 8947.778; 0.42331
 327.75; 3671.579;  300.925; 9129.536; 0.41818
 328.34; 3723.218;  272.723; 9291.838; 0.41728
 328.94; 3793.288;  266.072; 9447.905; 0.41550
 329.53; 3875.593;  277.765; 9658.876; 0.41621
 330.13; 3957.840;  293.098; 9872.460; 0.41729
 330.72; 4037.280;  297.428;10112.576; 0.41904
 331.32; 4090.449;  296.807;10347.750; 0.42315
 331.91; 4239.085;  286.021;10578.045; 0.41557
 332.51; 4371.809;  290.846;10832.428; 0.41214
 333.10; 4483.068;  280.941;11112.686; 0.41123
 333.69; 4520.584;  268.720;11343.870; 0.41577
 334.29; 4511.344;  259.020;11372.294; 0.41722
 334.88; 4532.938;  263.526;11404.218; 0.41654
 335.48; 4555.564;  274.151;11347.513; 0.41269
 336.07; 4602.439;  277.361;11521.065; 0.41492
 336.67; 4608.493;  271.793;11561.792; 0.41553
 337.26; 4633.110;  270.478;11724.744; 0.41922
 337.86; 4743.780;  274.661;11795.073; 0.41125
 338.45; 4849.916;  285.081;11996.201; 0.40917
 339.04; 4885.763;  280.248;12122.714; 0.41016
 339.64; 4891.230;  279.247;12324.855; 0.41694
 340.23; 4886.290;  276.541;12444.594; 0.42154
 340.83; 4947.364;  283.446;12579.002; 0.42100
 341.42; 4966.794;  284.034;12728.085; 0.42446
 342.02; 5035.096;  280.810;12860.717; 0.42259
 342.61; 5074.207;  285.029;12994.842; 0.42388
 343.20; 5198.722;  280.703;13173.363; 0.41855
 343.80; 5255.879;  275.024;13326.514; 0.41836
 344.39; 5352.146;  277.525;13574.777; 0.41836
 344.99; 5404.955;  284.701;13698.586; 0.41826
 345.58; 5504.700;  281.629;13941.331; 0.41752
 346.17; 5530.646;  272.425;14086.941; 0.41950
 346.77; 5565.207;  263.601;14425.499; 0.42671
 347.36; 5631.447;  267.766;14640.403; 0.42807
 347.96; 5741.785;  271.456;14918.073; 0.42772
 348.55; 5873.122;  272.039;15018.413; 0.42041
 349.14; 5944.638;  269.152;15148.264; 0.41857
 349.74; 6095.679;  282.193;15379.635; 0.41447
 350.33; 6152.993;  292.264;15619.281; 0.41751
 350.92; 6245.466;  292.029;15990.758; 0.42110
 351.52; 6260.092;  276.988;16197.719; 0.42504
 352.11; 6305.743;  277.642;16449.038; 0.42857
 352.70; 6379.505;  293.221;16652.467; 0.42941
 353.30; 6477.394;  299.069;16923.354; 0.42987
 353.89; 6578.532;  289.556;17199.826; 0.42957
 354.49; 6664.828;  295.537;17471.125; 0.43082
 355.08; 6776.279;  303.789;17648.240; 0.42809
 355.67; 6887.916;  306.509;17850.877; 0.42582
 356.27; 7009.790;  292.678;18013.082; 0.42129
 356.86; 7020.423;  288.376;18230.048; 0.42572
 357.45; 7127.372;  297.756;18507.331; 0.42590
 358.05; 7204.990;  297.214;18684.613; 0.42518
 358.64; 7299.008;  292.504;18894.298; 0.42405
 359.23; 7332.201;  289.300;19081.825; 0.42623
 359.83; 7366.091;  289.121;19433.380; 0.43219
 360.42; 7468.975;  293.174;19722.600; 0.43259
 361.01; 7585.532;  287.355;19981.487; 0.43112
 361.61; 7696.574;  287.502;20183.522; 0.42900
 362.20; 7808.771;  294.987;20496.718; 0.42953
 362.79; 7837.349;  302.910;20634.303; 0.43112
 363.38; 7868.556;  301.613;20815.514; 0.43313
 363.98; 7936.761;  289.171;20943.715; 0.43149
 364.57; 8011.196;  277.744;21176.149; 0.43174
 365.16; 8122.542;  288.573;21351.502; 0.42954
 365.76; 8123.658;  293.720;21537.287; 0.43347
 366.35; 8179.251;  294.920;21731.542; 0.43439
 366.94; 8214.505;  286.459;21913.791; 0.43584
 367.53; 8296.179;  286.426;22067.466; 0.43446
 368.13; 8416.533;  291.994;22246.489; 0.43172
 368.72; 8471.670;  285.482;22413.295; 0.43186
 369.31; 8547.077;  292.281;22597.374; 0.43170
 369.91; 8575.911;  283.382;22746.877; 0.43279
 370.50; 8679.100;  291.699;22820.059; 0.42910
 371.09; 8752.624;  278.017;22946.909; 0.42731
 371.68; 8764.707;  286.967;23106.324; 0.43002
 372.28; 8798.297;  294.984;23340.584; 0.43300
 372.87; 8849.214;  297.367;23443.502; 0.43242
 373.46; 8980.638;  297.723;23614.255; 0.42900
 374.05; 9023.211;  287.889;23758.158; 0.42924
 374.65; 9030.555;  290.440;23950.173; 0.43249
 375.24; 9043.397;  272.918;24146.349; 0.43489
 375.83; 9138.416;  275.848;24331.370; 0.43366
 376.42; 9220.937;  273.516;24515.563; 0.43287
 377.02; 9349.209;  293.907;24527.502; 0.42751
 377.61; 9417.376;  288.112;24762.668; 0.42828
 378.20; 9516.163;  297.747;24944.118; 0.42710
 378.79; 9534.263;  297.015;25086.217; 0.42872
 379.38; 9578.825;  282.191;25204.109; 0.42826
 379.98; 9666.855;  267.243;25344.469; 0.42617
 380.57; 9747.129;  272.112;25606.751; 0.42713
 381.16; 9868.836;  291.609;25727.129; 0.42420
 381.75; 9916.858;  289.589;25767.151; 0.42265
 382.35;10015.315;  283.703;25937.612; 0.42097
 382.94;10050.407;  271.231;26182.039; 0.42318
 383.53;10214.129;  279.541;26558.760; 0.42246
 384.12;10337.000;  269.432;26865.627; 0.42189
 384.71;10528.061;  284.069;27028.687; 0.41677
 385.31;10569.261;  287.699;27353.893; 0.42037
 385.90;10672.141;  299.731;27598.110; 0.42026
 386.49;10757.355;  283.306;27919.987; 0.42137
 387.08;10914.307;  296.763;28085.602; 0.41785
 387.67;11046.970;  302.047;28384.267; 0.41723
 388.26;11196.127;  312.463;28670.094; 0.41589
 388.86;11310.488;  297.866;29041.131; 0.41665
 389.45;11475.339;  285.685;29324.329; 0.41416
 390.04;11610.195;  279.860;29566.863; 0.41243
 390.63;11769.024;  284.795;29878.048; 0.41109
 391.22;11899.118;  294.422;30097.179; 0.40962
 391.81;11989.678;  303.408;30368.117; 0.41038
 392.41;12188.815;  324.211;30517.642; 0.40566
 393.00;12266.381;  349.022;30747.606; 0.40667
 393.59;12406.583;  379.676;31111.212; 0.40743
 394.18;12453.836;  399.780;31505.223; 0.41170
 394.77;12728.768;  433.703;31930.599; 0.40854
 395.36;12872.400;  473.557;32244.356; 0.40865
 395.95;13004.927;  524.323;32561.017; 0.40941
 396.55;13049.858;  566.236;32856.406; 0.41273
 397.14;13216.059;  594.577;33298.717; 0.41349
 397.73;13418.227;  601.786;33627.642; 0.41109
 398.32;13657.265;  612.294;34204.404; 0.41079
 398.91;13937.168;  621.039;34614.988; 0.40702
 399.50;14183.257;  632.059;35200.379; 0.40670
 400.09;14386.918;  605.452;35675.306; 0.40564
 400.68;14643.828;  582.293;36366.134; 0.40565
 401.27;14952.464;  548.561;37014.694; 0.40341
 401.87;15296.134;  525.771;37604.957; 0.39974
 402.46;15544.134;  501.053;38119.893; 0.39807
 403.05;15823.212;  484.389;38675.942; 0.39618
 403.64;16015.718;  490.521;39240.769; 0.39724
 404.23;16381.373;  484.797;39841.080; 0.39371
 404.82;16617.657;  502.588;40438.695; 0.39413
 405.41;17021.118;  491.629;41140.816; 0.39079
 406.00;17222.629;  497.890;41752.976; 0.39212
 406.59;17499.817;  479.966;42383.807; 0.39130
 407.18;17655.079;  482.149;42943.385; 0.39315
 407.77;17901.733;  466.520;43500.038; 0.39238
 408.37;18097.371;  484.641;43973.019; 0.39255
 408.96;18332.905;  491.806;44465.898; 0.39178
 409.55;18583.292;  504.476;44970.283; 0.39086
 410.14;18869.141;  481.626;45459.452; 0.38848
 410.73;19160.829;  490.299;45905.805; 0.38605
 411.32;19335.427;  492.855;46441.730; 0.38713
 411.91;19572.592;  505.687;47060.216; 0.38768
 412.50;19643.021;  480.732;47624.639; 0.39098
 413.09;19879.802;  484.505;48110.411; 0.39015
 413.68;20001.987;  482.467;48573.257; 0.39159
 414.27;20216.981;  487.472;48936.919; 0.39017
 414.86;20309.041;  462.470;49236.309; 0.39050
 415.45;20547.151;  452.555;49687.411; 0.38919
 416.04;20736.481;  462.743;50083.734; 0.38873
 416.63;21001.356;  468.551;50542.275; 0.38716
 417.22;21081.432;  461.867;50754.683; 0.38723
 417.81;21172.897;  462.159;51068.477; 0.38801
 418.40;21233.097;  476.694;51393.675; 0.38971
 418.99;21301.931;  477.832;51737.830; 0.39121
 419.58;21418.494;  462.218;51969.382; 0.39055
 420.17;21427.841;  452.952;52248.392; 0.39259
 420.76;21579.289;  458.593;52499.836; 0.39164
 421.35;21717.554;  472.988;53005.769; 0.39318
 421.94;21839.621;  474.287;53203.501; 0.39234
 422.53;21862.423;  469.601;53402.299; 0.39346
 423.12;21877.287;  471.552;53493.823; 0.39393
 423.71;21986.329;  463.366;53670.857; 0.39307
 424.30;22042.017;  471.573;53819.883; 0.39326
 424.89;22117.498;  477.611;53888.037; 0.39237
 425.48;22119.160;  477.854;53974.356; 0.39304
 426.07;22185.176;  465.438;53940.695; 0.39130
 426.66;22008.327;  460.097;54040.507; 0.39559
 427.25;21918.924;  453.014;53995.096; 0.39695
 427.84;21770.210;  450.549;53912.043; 0.39926
 428.43;21814.610;  452.848;53711.442; 0.39675
 429.02;21653.055;  457.772;53797.552; 0.40081
 429.61;21512.617;  448.720;53826.107; 0.40382
 430.20;21406.957;  425.820;53758.443; 0.40516
 430.79;21352.093;  437.001;53531.580; 0.40459
 431.38;21250.727;  442.471;53315.543; 0.40500
 431.97;21117.624;  451.391;53001.434; 0.40531
 432.55;20982.201;  445.807;52690.011; 0.40551
 433.14;20833.935;  441.412;52704.411; 0.40872
 433.73;20567.919;  432.971;52655.054; 0.41390
 434.32;20335.136;  424.624;52606.263; 0.41844
 434.91;20179.944;  423.161;52233.737; 0.41870
 435.50;20068.744;  418.064;51971.869; 0.41888
 436.09;19956.517;  418.432;51687.970; 0.41898
 436.68;19713.189;  422.559;51624.303; 0.42394
 437.27;19591.346;  439.214;51661.122; 0.42724
 437.86;19414.792;  433.576;51508.561; 0.42988
 438.45;19387.889;  436.794;51330.326; 0.42903
 439.04;19216.866;  419.148;51043.637; 0.43026
 439.62;19110.201;  412.025;51000.963; 0.43226
 440.21;18848.617;  413.441;50885.373; 0.43740
 440.80;18684.448;  430.263;51024.538; 0.44274
 441.39;18570.068;  449.560;51081.161; 0.44625
 441.98;18459.871;  447.874;51020.625; 0.44835
 442.57;18313.808;  436.530;50797.219; 0.44979
 443.16;18101.507;  425.660;50702.578; 0.45399
 443.75;17961.511;  431.481;50788.909; 0.45828
 444.33;17874.985;  435.018;50969.383; 0.46204
 444.92;17760.619;  440.355;50892.685; 0.46433
 445.51;17620.263;  417.614;50850.986; 0.46712
 446.10;17518.829;  410.612;51056.876; 0.47134
 446.69;17439.835;  404.712;51275.545; 0.47512
 447.28;17440.685;  420.929;51457.726; 0.47693
 447.87;17323.677;  412.657;51329.383; 0.47869
 448.45;17223.713;  413.036;51412.748; 0.48198
 449.04;17092.614;  390.874;51445.980; 0.48528
 449.63;16987.260;  386.972;51646.289; 0.48966
 450.22;16889.772;  381.501;51835.467; 0.49372
 450.81;16799.523;  386.090;52100.884; 0.49842
 451.40;16699.098;  391.666;52058.120; 0.50082
 451.98;16517.384;  398.229;52052.065; 0.50576
 452.57;16294.122;  403.856;52211.469; 0.51326
 453.16;16130.343;  401.626;52273.023; 0.51823
 453.75;16016.030;  391.994;52359.708; 0.52194
 454.34;15927.007;  388.814;52215.013; 0.52315
 454.93;15827.697;  395.232;52494.699; 0.52840
 455.51;15804.885;  391.805;52615.216; 0.52998
 456.10;15703.784;  402.670;52907.445; 0.53548
 456.69;15549.386;  396.116;53041.712; 0.54086
 457.28;15412.211;  403.304;53288.203; 0.54698
 457.87;15348.010;  395.902;53216.666; 0.54810
 458.45;15312.377;  396.108;53304.691; 0.54987
 459.04;15201.401;  388.965;53401.373; 0.55375
 459.63;15093.508;  395.666;53676.141; 0.55931
 460.22;14995.165;  396.420;53639.128; 0.56194
 460.80;14907.522;  400.600;53692.823; 0.56509
 461.39;14890.925;  392.483;53895.895; 0.56706
 461.98;14873.486;  393.792;54364.115; 0.57140
 462.57;14897.989;  398.874;54782.941; 0.57413
 463.16;14862.661;  397.668;55197.607; 0.57846
 463.74;14862.932;  387.726;55673.212; 0.58199
 464.33;14817.494;  376.102;56213.777; 0.58732
 464.92;14765.446;  370.427;56547.398; 0.59135
 465.51;14766.760;  357.831;56911.710; 0.59383
 466.09;14806.281;  358.204;57352.888; 0.59602
 466.68;14927.836;  361.518;57898.436; 0.59660
 467.27;14969.706;  372.331;58292.638; 0.59856
 467.86;14923.468;  368.243;58560.733; 0.60185
 468.44;14839.658;  363.094;58919.922; 0.60691
 469.03;14749.556;  361.882;59322.152; 0.61257
 469.62;14796.447;  367.807;59788.037; 0.61471
 470.20;14846.085;  365.300;60231.337; 0.61639
 470.79;14914.611;  374.762;60677.863; 0.61778
 471.38;14902.582;  358.816;61146.166; 0.62114
 471.97;14895.476;  359.020;61564.389; 0.62433
 472.55;14828.100;  350.111;61933.679; 0.62876
 473.14;14813.358;  362.234;62406.602; 0.63280
 473.73;14861.966;  355.473;62971.535; 0.63512
 474.31;14980.883;  347.428;63489.444; 0.63497
 474.90;15071.683;  350.797;63899.238; 0.63517
 475.49;15053.024;  352.737;64160.914; 0.63755
 476.07;15007.098;  357.870;64473.326; 0.64115
 476.66;14965.942;  347.892;64752.829; 0.64403
 477.25;14993.119;  340.581;65000.332; 0.64472
 477.84;14967.982;  352.761;65155.193; 0.64679
 478.42;15005.069;  344.733;65155.945; 0.64551
 479.01;14903.792;  344.681;65156.001; 0.64852
 479.60;14835.971;  330.210;65156.511; 0.65021
 480.18;14775.388;  334.265;65158.257; 0.65213
 480.77;14731.616;  342.135;65159.480; 0.65365
 481.35;14788.842;  347.900;65159.373; 0.65206
 481.94;14737.323;  344.738;65159.188; 0.65353
 482.53;14787.394;  335.059;65159.923; 0.65180
 483.11;14682.515;  332.000;65160.709; 0.65490
 483.70;14653.195;  318.067;65161.719; 0.65547
 484.29;14562.138;  316.585;65163.324; 0.65821
 484.87;14496.360;  306.461;65164.542; 0.65998
 485.46;14402.090;  315.710;65164.272; 0.66310
 486.05;14405.066;  319.958;65162.920; 0.66310
 486.63;14311.735;  321.237;65162.258; 0.66602
 487.22;14220.055;  317.302;65162.909; 0.66878
 487.81;14158.852;  323.288;65164.368; 0.67085
 488.39;14161.959;  331.856;65164.474; 0.67097
 488.98;14107.883;  337.207;65163.733; 0.67280
 489.56;13885.946;  317.228;65164.794; 0.67935
 490.15;13718.195;  310.772;65166.371; 0.68460
 490.74;13499.948;  302.771;65167.454; 0.69153
 491.32;13343.941;  305.937;65168.774; 0.69678
 491.91;13175.562;  316.111;64974.057; 0.70140
 492.49;13039.818;  317.823;64712.314; 0.70429
 493.08;12911.634;  332.939;64167.133; 0.70542
 493.67;12758.387;  325.500;63724.219; 0.70751
 494.25;12619.350;  343.920;63105.848; 0.70866
 494.84;12480.258;  335.724;62474.087; 0.70898
 495.42;12366.597;  338.386;61959.759; 0.70953
 496.01;12139.488;  319.873;61399.648; 0.71329
 496.59;11925.621;  310.443;60754.114; 0.71632
 497.18;11765.321;  311.106;60078.479; 0.71750
 497.77;11627.479;  311.733;59331.632; 0.71732
 498.35;11481.312;  326.966;58841.796; 0.71982
 498.94;11339.732;  324.499;58030.218; 0.71923
 499.52;11309.368;  324.914;57567.186; 0.71694
 500.11;11303.120;  311.275;56906.600; 0.71171
 500.69;11164.432;  304.601;56449.246; 0.71349
 501.28;11078.229;  315.149;55764.708; 0.71196
 501.86;10930.969;  317.653;55155.772; 0.71323
 502.45;10798.564;  338.264;54632.693; 0.71521
 503.03;10685.192;  328.939;54106.656; 0.71540
 503.62;10596.288;  339.385;53665.090; 0.71592
 504.20;10588.501;  326.215;53123.968; 0.71137
 504.79;10506.018;  326.766;52666.148; 0.71111
 505.37;10437.741;  326.582;52358.543; 0.71147
 505.96;10437.966;  332.269;51859.105; 0.70747
 506.55;10509.026;  327.706;51491.158; 0.70116
 507.13;10625.924;  315.837;51254.709; 0.69379
 507.72;10777.274;  312.954;51138.387; 0.68637
 508.30;10851.850;  319.265;50944.634; 0.68183
 508.89;10953.029;  316.460;50626.145; 0.67485
 509.47;10939.609;  308.593;50383.056; 0.67304
 510.05;11064.431;  311.037;50305.214; 0.66737
 510.64;11161.422;  312.992;50205.541; 0.66267
 511.22;11332.370;  326.961;50242.492; 0.65663
 511.81;11460.401;  323.186;50282.527; 0.65184
 512.39;11657.154;  329.747;50266.280; 0.64429
 512.98;11865.987;  310.647;50213.110; 0.63534
 513.56;12113.833;  306.947;50200.284; 0.62591
 514.15;12365.727;  297.484;50225.841; 0.61670
 514.73;12611.558;  293.306;50310.339; 0.60857
 515.32;12767.265;  298.909;50412.714; 0.60415
 515.90;12966.352;  306.909;50529.464; 0.59848
 516.49;13064.821;  321.223;50576.262; 0.59589
 517.07;13271.699;  323.415;50501.804; 0.58830
 517.66;13449.515;  325.663;50468.951; 0.58215
 518.24;13794.008;  330.491;50581.443; 0.57199
 518.82;14008.014;  322.791;50433.118; 0.56368
 519.41;14224.472;  321.449;50483.238; 0.55726
 519.99;14494.849;  304.901;50520.942; 0.54886
 520.58;14806.423;  313.039;50964.514; 0.54342
 521.16;15141.112;  316.114;51139.212; 0.53507
 521.75;15367.739;  315.579;51354.849; 0.53031
 522.33;15780.394;  314.722;51552.832; 0.52022
 522.91;16077.018;  303.280;51724.449; 0.51321
 523.50;16468.328;  304.661;51708.091; 0.50245
 524.08;16712.427;  292.957;51816.521; 0.49665
 524.67;17019.735;  296.699;52029.160; 0.49045
 525.25;17175.882;  294.898;52244.306; 0.48818
 525.83;17422.588;  300.195;52281.679; 0.48228
 526.42;17670.896;  299.604;52255.985; 0.47581
 527.00;17999.551;  297.414;52315.968; 0.46813
 527.59;18325.310;  293.742;52194.390; 0.45914
 528.17;18666.382;  296.702;52169.461; 0.45084
 528.75;18956.703;  314.407;52237.781; 0.44486
 529.34;19110.794;  317.963;52410.206; 0.44278
 529.92;19317.621;  322.096;52599.701; 0.43966
 530.50;19559.341;  308.099;52577.086; 0.43379
 531.09;19838.510;  310.277;52580.588; 0.42759
 531.67;20070.328;  319.699;52493.409; 0.42187
 532.25;20259.206;  331.224;52474.618; 0.41774
 532.84;20553.001;  319.265;52286.406; 0.40965
 533.42;20737.383;  303.579;52069.121; 0.40369
 534.00;20848.210;  296.379;51800.283; 0.39899
 534.59;20918.952;  306.923;51692.027; 0.39672
 535.17;21111.220;  307.396;51484.292; 0.39093
 535.75;21339.947;  311.833;51399.345; 0.38551
 536.34;21636.248;  327.170;51106.314; 0.37712
 536.92;21734.620;  323.362;50970.357; 0.37391
 537.50;21899.961;  320.767;50555.361; 0.36697
 538.09;21952.207;  304.234;50224.272; 0.36286
 538.67;22069.306;  307.957;49849.711; 0.35729
 539.25;22113.835;  292.004;49517.578; 0.35330
 539.84;22251.017;  298.382;49195.084; 0.34779
 540.42;22385.351;  287.620;48747.408; 0.34103
 541.00;22523.889;  304.712;48328.615; 0.33473
 541.59;22518.751;  293.453;47996.146; 0.33170
 542.17;22581.583;  303.713;47681.974; 0.32771
 542.75;22638.697;  301.687;47449.085; 0.32443
 543.33;22695.379;  321.928;47035.436; 0.31971
 543.92;22739.412;  322.791;46647.473; 0.31524
 544.50;22832.274;  319.637;46212.001; 0.30931
 545.08;22933.677;  303.653;45900.067; 0.30425
 545.67;23011.799;  304.594;45544.519; 0.29936
 546.25;23053.544;  306.855;45243.598; 0.29568
 546.83;23089.170;  305.919;44881.223; 0.29148
 547.41;23176.910;  307.185;44485.963; 0.28595
 548.00;23197.363;  304.048;44073.416; 0.28146
 548.58;23240.624;  293.554;43651.340; 0.27634
 549.16;23223.257;  273.252;43462.973; 0.27460
 549.74;23332.290;  276.221;43125.006; 0.26915
 550.33;23424.307;  287.338;42789.017; 0.26410
 550.91;23450.100;  287.502;42328.145; 0.25888
 551.49;23488.682;  275.114;42084.067; 0.25553
 552.07;23625.625;  281.527;41894.675; 0.25105
 552.66;23831.536;  296.715;41696.915; 0.24529
 553.24;24014.754;  301.874;41407.799; 0.23892
 553.82;24126.015;  287.046;41262.389; 0.23524
 554.40;24105.939;  287.502;41018.645; 0.23301
 554.98;24188.154;  286.839;40927.197; 0.23054
 555.57;24226.062;  295.511;40724.442; 0.22774
 556.15;24498.478;  295.794;40729.857; 0.22288
 556.73;24516.480;  289.872;40584.856; 0.22096
 557.31;24741.056;  280.087;40487.094; 0.21583
 557.89;24793.195;  267.680;40402.230; 0.21390
 558.48;25038.117;  270.725;40389.487; 0.20947
 559.06;25181.934;  269.279;40492.969; 0.20806
 559.64;25438.326;  288.172;40421.363; 0.20296
 560.22;25573.461;  308.276;40298.501; 0.19943
 560.80;25740.729;  311.749;40155.433; 0.19503
 561.39;25878.440;  300.174;40123.139; 0.19226
 561.97;26116.436;  304.256;40118.465; 0.18821
 562.55;26433.558;  305.864;40159.584; 0.18337
 563.13;26656.788;  307.652;40244.814; 0.18061
 563.71;26914.642;  295.320;40343.674; 0.17739
 564.29;26991.142;  296.315;40286.513; 0.17553
 564.88;27186.004;  280.495;40218.374; 0.17154
 565.46;27227.737;  277.260;40267.767; 0.17139
 566.04;27372.211;  269.464;40338.574; 0.16980
 566.62;27593.757;  292.162;40520.457; 0.16834
 567.20;27902.978;  292.265;40647.678; 0.16482
 567.78;28146.386;  300.170;40851.754; 0.16324
 568.36;28249.386;  300.837;41002.754; 0.16326
 568.94;28442.824;  296.460;41004.189; 0.16025
 569.53;28738.495;  295.816;41099.192; 0.15673
 570.11;29074.459;  283.902;41113.488; 0.15172
 570.69;29325.219;  278.869;41248.245; 0.14937
 571.27;29376.902;  279.854;41227.262; 0.14838
 571.85;29528.195;  279.584;41295.220; 0.14684
 572.43;29709.860;  299.078;41479.213; 0.14618
 573.01;29967.511;  288.199;41566.526; 0.14327
 573.59;30145.657;  284.931;41522.011; 0.14019
 574.17;30271.955;  270.419;41423.650; 0.13726
 574.76;30447.397;  278.826;41529.098; 0.13587
 575.34;30576.629;  274.920;41725.997; 0.13607
 575.92;30750.819;  271.771;41808.186; 0.13443
 576.50;30873.472;  265.398;41828.507; 0.13287
 577.08;31018.680;  261.206;41866.048; 0.13119
 577.66;31211.987;  250.776;41875.013; 0.12853
 578.24;31383.467;  252.747;41879.155; 0.12618
 578.82;31701.226;  257.942;41897.583; 0.12198
 579.40;31786.187;  266.978;41903.210; 0.12090
 579.98;31957.938;  273.567;41841.961; 0.11792
 580.56;31997.628;  281.852;41853.319; 0.11752
 581.14;32061.810;  291.659;41917.834; 0.11735
 581.72;32238.887;  280.280;42082.244; 0.11661
 582.30;32422.448;  273.151;42074.467; 0.11402
 582.88;32705.268;  274.650;42152.288; 0.11103
 583.46;32732.131;  282.363;42189.821; 0.11108
 584.04;32743.763;  282.956;42171.457; 0.11074
 584.62;32953.130;  265.125;42197.830; 0.10816
 585.21;33114.398;  267.265;42241.428; 0.10648
 585.79;33383.316;  273.754;42392.009; 0.10452
 586.37;33420.615;  277.118;42415.309; 0.10428
 586.95;33577.435;  275.522;42455.787; 0.10264
 587.53;33720.473;  269.979;42469.819; 0.10091
 588.11;33967.579;  278.442;42585.262; 0.09892
 588.69;34123.511;  282.733;42557.865; 0.09664
 589.27;34235.789;  283.424;42506.477; 0.09468
 589.85;34320.916;  276.026;42443.602; 0.09293
 590.43;34475.587;  271.715;42599.939; 0.09255
 591.01;34558.833;  278.076;42722.853; 0.09277
 591.59;34667.258;  288.299;42936.945; 0.09361
 592.16;34696.969;  287.924;42891.657; 0.09278
 592.74;34840.361;  291.617;42886.045; 0.09092
 593.32;34811.936;  293.193;42739.948; 0.08979
 593.90;34920.623;  297.895;42708.966; 0.08812
 594.48;34927.026;  288.777;42603.037; 0.08693
 595.06;35044.793;  285.245;42684.475; 0.08628
 595.64;35155.558;  272.769;42709.242; 0.08513
 596.22;35263.122;  276.890;42757.472; 0.08429
 596.80;35393.938;  268.138;42505.619; 0.08007
 597.38;35300.546;  264.245;42457.558; 0.08073
 597.96;35265.898;  262.869;42299.911; 0.07953
 598.54;35098.389;  268.057;42320.734; 0.08184
 599.12;35218.731;  272.769;42174.074; 0.07883
 599.70;35206.282;  272.156;42133.628; 0.07856
 600.28;35287.200;  269.178;41999.881; 0.07616
 600.86;35215.891;  273.568;41898.236; 0.07600
 601.44;35225.643;  279.130;41816.989; 0.07504
 602.02;35216.638;  273.135;41601.984; 0.07289
 602.59;35234.154;  269.019;41487.164; 0.07145
 603.17;35126.644;  254.435;41427.991; 0.07214
 603.75;35095.018;  264.600;41407.036; 0.07233
 604.33;35072.020;  268.544;41269.041; 0.07117
 604.91;35103.626;  272.574;41056.648; 0.06852
 605.49;35070.714;  271.546;40985.067; 0.06817
 606.07;35021.197;  254.900;40828.877; 0.06709
 606.65;34902.355;  260.422;40696.701; 0.06717
 607.23;34751.799;  264.441;40448.820; 0.06640
 607.80;34567.689;  277.156;40221.379; 0.06628
 608.38;34477.449;  277.256;40025.464; 0.06529
 608.96;34400.654;  285.786;39921.000; 0.06514
 609.54;34148.373;  288.246;39743.725; 0.06642
 610.12;33989.690;  283.928;39528.375; 0.06607
 610.70;33825.589;  273.259;39095.265; 0.06336
 611.28;33841.383;  259.195;38813.390; 0.05996
 611.85;33657.566;  265.841;38433.913; 0.05806
 612.43;33311.610;  260.695;38304.961; 0.06111
 613.01;33088.811;  263.202;38019.161; 0.06077
 613.59;32904.764;  249.299;37795.112; 0.06061
 614.17;32871.400;  240.914;37668.085; 0.05956
 614.75;32718.520;  222.778;37521.205; 0.05986
 615.32;32555.093;  209.277;37291.775; 0.05935
 615.90;32328.554;  219.080;36866.572; 0.05741
 616.48;32183.635;  232.952;36658.988; 0.05693
 617.06;31949.802;  255.157;36308.488; 0.05596
 617.64;31697.126;  246.140;36072.812; 0.05657
 618.22;31367.501;  241.049;35666.522; 0.05619
 618.79;31178.940;  228.178;35515.632; 0.05695
 619.37;30997.659;  227.104;35180.352; 0.05535
 619.95;30716.582;  231.387;34894.600; 0.05578
 620.53;30429.478;  218.869;34491.494; 0.05479
 621.11;30117.950;  206.529;34156.975; 0.05501
 621.68;29982.008;  201.116;33920.700; 0.05394
 622.26;29820.086;  202.843;33803.106; 0.05480
 622.84;29862.357;  212.594;33643.042; 0.05212
 623.42;29778.719;  214.208;33340.072; 0.04940
 623.99;29647.470;  232.130;33128.823; 0.04858
 624.57;29494.523;  239.695;32874.211; 0.04748
 625.15;29249.593;  249.244;32723.283; 0.04913
 625.73;29043.091;  235.066;32483.448; 0.04899
 626.30;28820.767;  228.444;32290.122; 0.04974
 626.88;28665.244;  228.031;32032.596; 0.04860
 627.46;28498.430;  230.061;31766.787; 0.04752
 628.04;28200.869;  242.419;31549.234; 0.04913
 628.61;28007.072;  241.899;31249.103; 0.04796
 629.19;27825.710;  244.829;31015.066; 0.04752
 629.77;27570.071;  231.831;30736.758; 0.04760
 630.35;27399.175;  234.217;30562.869; 0.04784
 630.92;27135.557;  232.092;30375.921; 0.04939
 631.50;27017.110;  220.757;30199.145; 0.04873
 632.08;26817.976;  206.521;29949.680; 0.04832
 632.66;26714.092;  196.801;29744.460; 0.04699
 633.23;26536.394;  216.776;29426.430; 0.04525
 633.81;26308.318;  225.566;29138.020; 0.04473
 634.39;26041.391;  220.298;28844.754; 0.04476
 634.96;25853.096;  221.956;28624.791; 0.04459
 635.54;25725.195;  216.680;28606.896; 0.04648
 636.12;25586.933;  214.735;28334.976; 0.04466
 636.69;25436.218;  204.526;28222.591; 0.04549
 637.27;25218.133;  199.403;27913.834; 0.04444
 637.85;25039.696;  217.219;27696.062; 0.04415
 638.42;24803.956;  206.286;27392.989; 0.04346
 639.00;24652.419;  223.367;27259.457; 0.04404
 639.58;24503.904;  209.789;26981.612; 0.04218
 640.15;24277.080;  222.891;26790.445; 0.04316
 640.73;24024.528;  204.119;26492.226; 0.04281
 641.31;23870.976;  216.013;26471.006; 0.04529
 641.88;23794.757;  210.908;26285.787; 0.04361
 642.46;23617.871;  226.803;26132.901; 0.04435
 643.04;23456.653;  214.697;25934.349; 0.04399
 643.61;23354.434;  223.925;25817.463; 0.04395
 644.19;23326.215;  209.153;25659.577; 0.04176
 644.77;23177.663;  224.048;25468.358; 0.04131
 645.34;23109.110;  211.943;25293.805; 0.03958
 645.92;22933.892;  214.504;25070.586; 0.03904
 646.49;22889.339;  218.399;24938.033; 0.03757
 647.07;22653.454;  220.293;24745.814; 0.03873
 647.65;22524.568;  224.188;24564.928; 0.03802
 648.22;22351.016;  218.082;24391.042; 0.03829
 648.80;22330.130;  227.310;24368.156; 0.03830
 649.37;22225.245;  227.872;24339.937; 0.03986
 649.95;22086.693;  227.433;24242.051; 0.04084
 650.53;21926.807;  209.328;24121.165; 0.04180
 651.10;21902.255;  214.222;24054.279; 0.04109
 651.68;21892.036;  211.450;24020.060; 0.04066
 652.25;21847.817;  221.012;23899.174; 0.03936
 652.83;21732.598;  211.573;23700.955; 0.03801
 653.41;21615.379;  208.468;23524.069; 0.03709
 653.98;21569.827;  212.362;23340.850; 0.03460
 654.56;21463.275;  211.590;23307.630; 0.03614
 655.13;21407.723;  208.818;23285.744; 0.03686
 655.71;21320.837;  207.379;23284.525; 0.03862
 656.28;21200.952;  194.941;23185.639; 0.03921
 656.86;21089.066;  188.169;22962.753; 0.03729
 657.43;21077.847;  190.397;22872.868; 0.03580
 658.01;21092.295;  212.958;22793.315; 0.03401
 658.58;21192.076;  207.519;22876.096; 0.03352
 659.16;21117.524;  211.747;22798.876; 0.03359
 659.74;21128.972;  196.309;22777.324; 0.03292
 660.31;21004.086;  204.203;22714.438; 0.03432
 660.89;21021.867;  198.098;22687.885; 0.03343
 661.46;21035.648;  206.659;22545.999; 0.03040
 662.04;20969.763;  208.554;22516.780; 0.03121
 662.61;20922.211;  207.448;22500.894; 0.03190
 663.19;20956.658;  206.676;22626.342; 0.03361
 663.76;21110.439;  209.571;22600.456; 0.02991
 664.34;21031.554;  211.132;22526.237; 0.03011
 664.91;20978.668;  214.027;22413.684; 0.02902
 665.49;20933.449;  216.922;22441.798; 0.03052
 666.06;21061.897;  213.150;22513.246; 0.02923
 666.64;21078.678;  212.044;22555.693; 0.02970
 667.21;21022.126;  216.606;22500.140; 0.02981
 667.79;20969.241;  204.167;22400.588; 0.02895
 668.36;20976.688;  201.395;22402.702; 0.02883
 668.93;21012.803;  202.290;22421.149; 0.02844
 669.51;20939.251;  198.184;22426.263; 0.03007
 670.08;20827.698;  192.412;22387.044; 0.03164
 670.66;20854.813;  189.307;22273.825; 0.02884
 671.23;20933.927;  213.201;22361.606; 0.02894
 671.81;21017.375;  219.763;22403.720; 0.02803
 672.38;20987.156;  224.324;22501.167; 0.03057
 672.96;20885.937;  213.552;22510.281; 0.03285
 673.53;20935.718;  213.113;22482.395; 0.03126
 674.10;20908.833;  213.008;22524.843; 0.03265
 674.68;21029.281;  228.236;22505.290; 0.02977
 675.25;20926.062;  221.131;22417.404; 0.03021
 675.83;20886.176;  215.692;22370.185; 0.03011
 676.40;20761.291;  203.253;22300.299; 0.03135
 676.98;20777.405;  209.148;22323.413; 0.03148
 677.55;20750.853;  210.043;22281.527; 0.03121
 678.12;20863.301;  223.937;22260.975; 0.02846
 678.70;20867.415;  221.832;22236.089; 0.02788
 679.27;20903.863;  229.060;22163.870; 0.02569
 679.85;20783.311;  216.621;22124.984; 0.02745
 680.42;20813.425;  216.516;22133.431; 0.02698
 680.99;20760.206;  192.744;22099.212; 0.02739
 681.57;20764.987;  198.305;22028.659; 0.02590
 682.14;20638.435;  205.866;21848.773; 0.02499
 682.71;20561.550;  210.761;21795.554; 0.02557
 683.29;20439.331;  200.656;21706.668; 0.02638
 683.86;20278.112;  185.884;21546.116; 0.02658
 684.43;20131.226;  198.112;21362.230; 0.02603
 685.01;20008.007;  197.006;21197.011; 0.02531
 685.58;20045.122;  206.234;21272.458; 0.02607
 686.16;20103.570;  206.462;21269.239; 0.02473
 686.73;20141.017;  215.023;21397.686; 0.02656
 687.30;20010.132;  207.585;21388.467; 0.02922
 687.88;19991.913;  217.479;21321.914; 0.02827
 688.45;19884.361;  210.707;21118.362; 0.02642
 689.02;19855.809;  213.602;21022.142; 0.02505
 689.60;19743.256;  190.497;20889.257; 0.02474
 690.17;19778.037;  199.391;20926.704; 0.02476
 690.74;19720.152;  189.619;20805.485; 0.02349
 691.31;19681.600;  204.181;20824.932; 0.02477
 691.89;19521.381;  191.742;20754.713; 0.02686
 692.46;19533.162;  212.637;20700.494; 0.02548
 693.03;19509.943;  229.198;20611.941; 0.02414
 693.61;19490.391;  234.759;20426.722; 0.02062
 694.18;19433.172;  237.320;20424.503; 0.02187
 694.75;19280.620;  206.882;20414.950; 0.02509
 695.32;19207.734;  208.110;20458.064; 0.02768
 695.90;19094.182;  203.004;20312.512; 0.02714
 696.47;19066.296;  203.899;20210.626; 0.02558
 697.04;18997.077;  214.460;20060.073; 0.02391
 697.62;19017.525;  213.355;20039.187; 0.02298
 698.19;18941.973;  229.250;19951.301; 0.02282
 698.76;18933.421;  211.144;19960.082; 0.02319
 699.33;18768.869;  210.706;19883.196; 0.02532
 699.91;18697.650;  196.600;19795.977; 0.02505
 700.48;18647.098;  206.162;19674.091; 0.02354
 701.05;18633.545;  208.056;19645.538; 0.02322
 701.62;18645.326;  232.951;19536.652; 0.02053
 702.20;18577.108;  235.179;19463.767; 0.02050
 702.77;18521.555;  232.073;19314.881; 0.01844
 703.34;18376.336;  217.301;19303.995; 0.02164
 703.91;18223.784;  214.196;19161.775; 0.02205
 704.48;18092.899;  220.091;19054.223; 0.02275
 705.06;18076.680;  212.652;18964.004; 0.02105
 705.63;18013.461;  221.213;18940.118; 0.02205
 706.20;18025.575;  214.441;18934.565; 0.02162
 706.77;17974.690;  221.336;18864.679; 0.02124
 707.34;17942.804;  215.564;18821.793; 0.02102
 707.92;17815.585;  205.792;18710.907; 0.02154
 708.49;17686.033;  193.353;18575.022; 0.02153
 709.06;17642.814;  193.248;18466.136; 0.02002
 709.63;17595.929;  194.476;18431.916; 0.02038
 710.20;17517.376;  191.037;18446.697; 0.02269
 710.77;17483.158;  187.932;18338.145; 0.02096
 711.35;17543.939;  185.826;18305.592; 0.01865
 711.92;17701.053;  205.721;18271.706; 0.01394
 712.49;17738.834;  207.616;18372.487; 0.01542
 713.06;17678.282;  215.844;18405.934; 0.01773
 713.63;17590.730;  209.405;18498.382; 0.02211
 714.20;17555.844;  212.300;18556.829; 0.02437
 714.78;17622.959;  209.528;18487.277; 0.02104
 715.35;17637.740;  205.756;18407.724; 0.01877
 715.92;17638.854;  207.317;18351.838; 0.01741
 716.49;17609.969;  222.545;18343.285; 0.01794
 717.06;17539.417;  226.106;18273.400; 0.01803
 717.63;17460.531;  217.334;18198.847; 0.01821
 718.20;17452.645;  210.895;18175.294; 0.01783
 718.77;17461.093;  224.790;18170.075; 0.01751
 719.35;17436.541;  226.351;18153.189; 0.01772
 719.92;17302.655;  211.913;18038.303; 0.01830
 720.49;17222.103;  197.474;17879.084; 0.01644
 721.06;17104.218;  177.369;17774.532; 0.01687
 721.63;17036.999;  190.930;17799.979; 0.01924
 722.20;17044.780;  195.825;17861.426; 0.02056
 722.77;17107.894;  203.386;17825.540; 0.01806
 723.34;17150.342;  196.947;17821.321; 0.01686
 723.91;17084.123;  205.509;17813.102; 0.01836
 724.48;17045.904;  222.070;17777.883; 0.01850
 725.05;16957.352;  212.964;17617.997; 0.01681
 725.62;16926.800;  195.192;17490.778; 0.01440
 726.20;16900.248;  186.754;17461.892; 0.01435
 726.77;16867.029;  192.982;17446.339; 0.01483
 727.34;16856.143;  199.210;17412.787; 0.01428
 727.91;16861.258;  209.104;17361.567; 0.01286
 728.48;16960.706;  214.999;17354.015; 0.01008
 729.05;16917.487;  215.560;17353.795; 0.01120
 729.62;16926.934;  192.788;17320.910; 0.01011
 730.19;16803.716;  185.683;17297.024; 0.01270
 730.76;16846.830;  188.578;17324.138; 0.01227
 731.33;16782.611;  211.472;17306.252; 0.01351
 731.90;16738.392;  215.034;17274.033; 0.01386
 732.47;16612.507;  206.261;17242.147; 0.01636
 733.04;16517.621;  191.156;17245.594; 0.01895
 733.61;16540.402;  168.051;17256.042; 0.01858
 734.18;16467.183;  173.945;17191.156; 0.01888
 734.75;16430.298;  184.507;17077.270; 0.01696
 735.32;16290.746;  211.401;16955.384; 0.01759
 735.89;16361.860;  203.963;16851.831; 0.01297
 736.46;16383.308;  212.191;16734.945; 0.00934
 737.03;16322.756;  203.085;16674.393; 0.00937
 737.60;16165.203;  203.647;16580.840; 0.01116
 738.17;16010.984;  173.208;16558.621; 0.01476
 738.74;15926.766;  184.103;16523.735; 0.01616
 739.31;15803.547;  185.331;16430.849; 0.01710
 739.88;15760.661;  195.225;16300.630; 0.01481
 740.45;15687.776;  176.120;16234.411; 0.01504
 741.02;15737.890;  174.348;16293.858; 0.01524
 741.59;15821.671;  171.909;16337.305; 0.01408
 742.15;16001.452;  177.804;16325.753; 0.00881
 742.72;16036.233;  185.365;16376.867; 0.00923
 743.29;15912.681;  187.593;16351.648; 0.01196
 743.86;15743.129;  195.154;16298.095; 0.01523
 744.43;15640.243;  197.049;16220.543; 0.01602
 745.00;15672.025;  201.277;16240.323; 0.01567
 745.57;15730.139;  209.172;16261.771; 0.01463
 746.14;15781.920;  201.733;16198.552; 0.01146
 746.71;15768.035;  208.294;16179.666; 0.01134
 747.28;15810.816;  196.522;16170.446; 0.00989
 747.85;15789.930;  172.417;16124.227; 0.00920
 748.42;15807.711;  173.645;16103.675; 0.00814
 748.98;15747.492;  177.206;16075.455; 0.00905
 749.55;15701.273;  197.767;16011.569; 0.00861
 750.12;15720.055;  197.662;16015.683; 0.00819
 750.69;15611.836;  204.890;15955.131; 0.00957
 751.26;15559.617;  216.118;15910.245; 0.00981
 751.83;15389.398;  206.013;15821.026; 0.01217
 752.40;15358.846;  204.907;15769.807; 0.01162
 752.97;15372.293;  192.802;15780.587; 0.01153
 753.53;15399.075;  195.697;15773.035; 0.01055
 754.10;15439.856;  187.925;15706.815; 0.00754
 754.67;15355.970;  185.486;15666.263; 0.00879
 755.24;15208.751;  192.714;15616.044; 0.01162
 755.81;15086.199;  200.608;15583.491; 0.01427
 756.38;15042.980;  223.503;15510.272; 0.01348
 756.94;15076.095;  215.064;15482.386; 0.01171
 757.51;15060.209;  204.292;15502.833; 0.01275
 758.08;15083.990;  196.520;15545.281; 0.01325
 758.65;15010.105;  213.748;15443.728; 0.01254
 759.22;14913.219;  220.643;15351.176; 0.01276
 759.79;14767.334;  205.538;15180.623; 0.01215
 760.35;14715.448;  191.432;15130.404; 0.01223
 760.92;14545.896;  201.994;14987.518; 0.01317
 761.49;14453.010;  208.555;14849.965; 0.01194
 762.06;14351.125;  211.783;14641.079; 0.00882
 762.63;14296.239;  201.011;14500.527; 0.00625
 763.19;14187.687;  203.239;14469.641; 0.00867
 763.76;14078.468;  215.133;14423.422; 0.01067
 764.33;13976.916;  219.695;14294.202; 0.00990
 764.90;13842.697;  218.589;14107.650; 0.00836
 765.46;13663.145;  197.817;13914.097; 0.00802
 766.03;13538.259;  196.045;13749.878; 0.00683
 766.60;13471.040;  197.940;13624.992; 0.00501
 767.17;13337.821;  205.501;13465.773; 0.00421
 767.73;13179.936;  207.063;13413.220; 0.00774
 768.30;12954.050;  206.624;13205.001; 0.00847
 768.87;12769.498;  215.185;13045.782; 0.00945
 769.44;12581.946;  213.413;12836.229; 0.00884
 770.00;12404.727;  215.975;12686.677; 0.00993
 770.57;12237.841;  216.536;12525.791; 0.01028
 771.14;12088.289;  213.430;12350.238; 0.00948
 771.71;11896.070;  198.325;12122.686; 0.00833
 772.27;11641.851;  206.220;11935.800; 0.01102
 772.84;11453.299;  209.448;11715.914; 0.01003
 773.41;11316.080;  213.676;11595.695; 0.01080
 773.97;11279.861;  205.904;11440.809; 0.00627
 774.54;11151.309;  213.798;11314.923; 0.00645
 775.11;10961.424;  232.360;11227.370; 0.01063
 775.67;10785.871;  228.588;11074.818; 0.01173
 776.24;10646.653;  222.482;10902.265; 0.01052
 776.81;10527.434;  220.377;10665.712; 0.00579
 777.38;10374.548;  208.272;10484.160; 0.00466
 777.94;10258.329;  214.166;10350.941; 0.00399
 778.51;10145.110;  199.728;10214.721; 0.00303
 779.08;10038.225;  210.622;10137.835; 0.00438
 779.64; 9893.339;  201.517;10058.283; 0.00733
 780.21; 9794.454;  202.745; 9970.064; 0.00788
 780.78; 9654.568;  211.639; 9870.178; 0.00980
 781.34; 9603.349;  212.534; 9787.625; 0.00844
 781.91; 9465.797;  225.762; 9703.406; 0.01103
 782.47; 9433.245;  227.990; 9633.520; 0.00935
 783.04; 9331.026;  238.551; 9482.634; 0.00718
 783.61; 9296.474;  245.779; 9385.415; 0.00425
 784.17; 9193.588;  246.674; 9320.196; 0.00610
 784.74; 9096.369;  236.569; 9240.310; 0.00700
 785.31; 9028.817;  244.797; 9256.090; 0.01109
 785.87; 8987.932;  248.691; 9137.538; 0.00737
 786.44; 8956.046;  252.252; 9126.319; 0.00841
 787.00; 8905.494;  239.480; 9065.766; 0.00796
 787.57; 8856.942;  222.375; 9005.880; 0.00743
 788.14; 8815.723;  242.936; 8941.661; 0.00633
 788.70; 8755.837;  252.831; 8828.442; 0.00369
 789.27; 8703.952;  261.392; 8880.222; 0.00897
 789.83; 8692.733;  247.620; 8836.003; 0.00731
 790.40; 8703.847;  230.182; 8838.117; 0.00683
 790.96; 8736.628;  235.076; 8799.898; 0.00322
 791.53; 8699.409;  229.304; 8766.679; 0.00344
 792.10; 8667.524;  224.866; 8777.126; 0.00560
 792.66; 8609.305;  219.094; 8720.574; 0.00572
 793.23; 8599.753;  214.988; 8733.688; 0.00688
 793.79; 8567.534;  216.216; 8675.468; 0.00558
 794.36; 8542.982;  210.777; 8660.249; 0.00607
 794.92; 8419.763;  219.339; 8606.363; 0.00977
 795.49; 8388.877;  232.233; 8532.811; 0.00760
 796.05; 8351.992;  243.461; 8505.258; 0.00813
 796.62; 8415.106;  248.023; 8527.372; 0.00593
 797.19; 8366.887;  237.917; 8507.820; 0.00746
 797.75; 8304.002;  226.145; 8453.600; 0.00797
 798.32; 8274.783;  218.373; 8393.714; 0.00636
 798.88; 8328.231;  222.601; 8383.829; 0.00297
 799.45; 8430.012;  224.829; 8436.276; 0.00033
 800.01; 8489.793;  220.391; 8517.723; 0.00146
 800.58; 8607.241;  215.952; 8677.504; 0.00362
 801.14; 8824.688;  222.513; 8916.952; 0.00463
 801.71; 9068.136;  218.074; 9117.399; 0.00241
 802.27; 9292.917;  206.969; 9310.180; 0.00082
 802.84; 9562.698;  188.864; 9480.294;-0.00383
 803.40; 9847.479;  179.758; 9723.075;-0.00562
 803.96;10117.594;  198.986;10006.189;-0.00491
 804.53;10398.708;  210.548;10273.303;-0.00538
 805.09;10701.156;  208.442;10576.417;-0.00519
 805.66;11013.604;  200.670;10926.198;-0.00352
 806.22;11319.385;  172.898;11264.978;-0.00213
 806.79;11646.499;  185.793;11622.426;-0.00091
 807.35;11952.281;  182.354;11886.873;-0.00242
 807.92;12275.728;  214.582;12161.654;-0.00413
 808.48;12621.509;  221.810;12436.768;-0.00652
 809.05;12983.957;  217.705;12708.882;-0.00946
 809.61;13255.405;  213.933;13054.330;-0.00675
 810.17;13502.186;  218.827;13355.110;-0.00484
 810.74;13808.634;  231.055;13671.891;-0.00440
 811.30;14135.082;  226.617;13899.672;-0.00741
 811.87;14500.529;  214.511;14212.453;-0.00885
 812.43;14814.311;  214.406;14571.233;-0.00729
 812.99;15122.425;  216.967;14881.014;-0.00709
 813.56;15370.873;  221.862;15191.462;-0.00517
 814.12;15731.321;  221.090;15523.909;-0.00585
 814.69;16096.102;  216.318;15866.356;-0.00633
 815.25;16487.216;  210.213;16143.804;-0.00926
 815.81;16712.664;  200.774;16302.251;-0.01093
 816.38;17039.445;  196.335;16642.699;-0.01035
 816.94;17292.893;  193.897;16882.479;-0.01055
 817.51;17586.674;  192.791;17283.594;-0.00763
 818.07;17823.788;  201.019;17504.374;-0.00794
 818.63;18078.570;  202.247;17804.155;-0.00672
 819.20;18361.351;  201.808;18033.936;-0.00790
 819.76;18595.465;  209.370;18216.050;-0.00906
 820.32;18855.913;  216.598;18394.831;-0.01088
 820.89;18968.694;  218.159;18583.278;-0.00902
 821.45;19084.808;  193.387;18775.726;-0.00716
 822.01;19147.590;  176.615;18965.173;-0.00420
 822.58;19252.704;  180.843;19065.620;-0.00428
 823.14;19405.485;  194.404;19233.068;-0.00392
 823.70;19535.933;  202.299;19352.182;-0.00415
 824.27;19618.714;  193.194;19462.963;-0.00350
 824.83;19689.495;  215.421;19467.743;-0.00497
 825.39;19647.943;  215.649;19374.524;-0.00615
 825.95;19590.391;  221.211;19316.972;-0.00617
 826.52;19345.839;  191.105;19274.752;-0.00161
 827.08;19109.286;  189.000;19152.200; 0.00098
 827.64;18895.401;  175.895;18949.314; 0.00125
 828.21;18647.849;  175.123;18660.095; 0.00029
 828.77;18419.296;  181.351;18397.542;-0.00052
 829.33;18120.411;  183.579;18029.323;-0.00221
 829.89;17799.525;  181.807;17638.104;-0.00400
 830.46;17411.306;  185.701;17297.218;-0.00289
 831.02;17007.421;  190.596;16895.332;-0.00290
 831.58;16591.202;  201.157;16540.779;-0.00134
 832.15;16154.983;  185.052;16128.893;-0.00071
 832.71;15737.431;  188.280;15811.341; 0.00206
 833.27;15298.212;  178.841;15353.455; 0.00158
 833.83;14901.660;  169.736;14940.569; 0.00115
 834.39;14412.774;  164.297;14394.016;-0.00057
 834.96;13976.555;  162.192;13925.464;-0.00161
 835.52;13508.003;  187.086;13474.578;-0.00109
 836.08;13138.451;  188.981;13047.025;-0.00308
 836.64;12710.232;  194.876;12619.473;-0.00316
 837.21;12259.013;  198.770;12148.920;-0.00398
 837.77;11765.127;  198.332;11759.367;-0.00022
 838.33;11331.575;  206.893;11447.148; 0.00449
 838.89;10992.356;  203.121;11001.596; 0.00037
 839.45;10634.137;  205.349;10589.710;-0.00185
 840.02;10216.585;  209.910;10134.490;-0.00358
 840.58; 9774.366;  201.805; 9836.938; 0.00283
 841.14; 9394.481;  224.699; 9457.052; 0.00295
 841.70; 9044.929;  220.594; 9049.833; 0.00024
 842.26; 8653.710;  218.155; 8613.280;-0.00209
 842.82; 8275.491;  209.050; 8233.061;-0.00229
 843.39; 7855.272;  200.278; 7802.175;-0.00302
 843.95; 7475.386;  213.839; 7446.956;-0.00170
 844.51; 7090.834;  213.734; 7076.737;-0.00089
 845.07; 6771.949;  223.295; 6751.184;-0.00138
 845.63; 6487.063;  228.523; 6447.965;-0.00272
 846.19; 6264.844;  213.418; 6205.745;-0.00426
 846.75; 6020.959;  212.646; 6042.860; 0.00163
 847.32; 5821.406;  191.874; 5828.307; 0.00053
 847.88; 5625.521;  198.435; 5647.088; 0.00172
 848.44; 5472.302;  182.996; 5418.202;-0.00446
 849.00; 5333.083;  188.224; 5206.649;-0.01081
 849.56; 5149.198;  183.119; 5035.763;-0.01004
 850.12; 5000.979;  176.680; 4913.211;-0.00797
 850.68; 4875.093;  181.908; 4877.325; 0.00021
 851.24; 4873.874;  184.136; 4806.439;-0.00629
 851.80; 4847.655;  199.364; 4790.220;-0.00540
 852.37; 4813.770;  196.592; 4731.334;-0.00782
 852.93; 4721.551;  204.820; 4729.448; 0.00076
 853.49; 4715.332;  212.715; 4650.895;-0.00626
 854.05; 4678.780;  223.943; 4597.676;-0.00798
 854.61; 4641.894;  224.171; 4520.790;-0.01207
 855.17; 4591.675;  234.066; 4501.904;-0.00904
 855.73; 4608.457;  222.627; 4484.352;-0.01247
 856.29; 4623.904;  213.855; 4475.132;-0.01490
 856.85; 4625.685;  192.749; 4517.913;-0.01069
 857.41; 4673.133;  203.644; 4600.027;-0.00716
 857.97; 4739.581;  205.205; 4760.141; 0.00196
 858.53; 4889.362;  207.433; 4902.255; 0.00119
 859.09; 5059.143;  192.328; 5028.370;-0.00275
 859.65; 5350.591;  184.889; 5166.484;-0.01576
 860.21; 5596.372;  182.451; 5403.598;-0.01575
 860.77; 5931.153;  179.679; 5685.045;-0.01899
 861.33; 6230.268;  189.573; 6014.826;-0.01577
 861.89; 6567.715;  205.135; 6331.273;-0.01645
 862.45; 6878.830;  215.363; 6656.387;-0.01475
 863.01; 7230.944;  205.924; 6960.168;-0.01707
 863.57; 7600.392;  191.152; 7240.949;-0.02160
 864.13; 7933.840;  180.713; 7598.730;-0.01919
 864.69; 8257.954;  188.608; 7928.510;-0.01810
 865.25; 8585.735;  208.502; 8274.958;-0.01642
 865.81; 8901.183;  215.730; 8598.739;-0.01539
 866.37; 9263.964;  213.625; 8883.853;-0.01863
 866.93; 9596.079;  200.853; 9198.967;-0.01876
 867.49; 9918.193;  216.081; 9536.081;-0.01745
 868.05;10140.974;  210.642; 9849.195;-0.01295
 868.61;10443.422;  206.870;10116.309;-0.01410
 869.17;10768.203;  185.765;10306.090;-0.01939
 869.73;11164.318;  202.660;10652.537;-0.02077
 870.29;11467.432;  209.554;10985.985;-0.01898
 870.85;11752.213;  212.115;11316.099;-0.01673
 871.41;12084.661;  192.010;11700.213;-0.01427
 871.97;12475.109;  179.571;12032.994;-0.01590
 872.53;12891.890;  184.799;12414.108;-0.01664
 873.09;13283.004;  192.361;12748.222;-0.01811
 873.65;13679.452;  202.922;13125.336;-0.01823
 874.20;14093.233;  204.150;13530.783;-0.01795
 874.76;14440.233;  206.483;13844.450;-0.01857
 875.32;14751.233;  199.150;14344.450;-0.01231
 875.88;15139.233;  204.817;14722.117;-0.01230
 876.44;15526.900;  218.150;15059.450;-0.01347
 877.00;15904.233;  218.150;15358.117;-0.01539
 877.56;16170.567;  215.483;15696.450;-0.01310
 878.12;16463.233;  204.483;16104.450;-0.00969
 878.68;16797.900;  211.817;16344.450;-0.01204
 879.23;17106.233;  207.150;16637.783;-0.01221
 879.79;17351.567;  220.483;16875.783;-0.01223
 880.35;17611.567;  205.150;17127.117;-0.01226
 880.91;17895.900;  192.150;17367.783;-0.01315
 881.47;18171.900;  175.817;17611.783;-0.01373
 882.03;18434.567;  191.483;17929.783;-0.01219
 882.59;18745.233;  204.150;18199.450;-0.01298
 883.14;19021.233;  217.150;18423.117;-0.01404
 883.70;19206.900;  220.150;18492.117;-0.01667
 884.26;19162.900;  217.483;18606.117;-0.01295
 884.82;19172.233;  200.150;18627.783;-0.01265
 885.38;19116.900;  184.483;18693.783;-0.00982
 885.94;19199.567;  186.817;18692.783;-0.01173
 886.49;19257.233;  200.150;18759.783;-0.01149
 887.05;19305.900;  192.817;18819.450;-0.01120
 887.61;19178.567;  182.817;18766.450;-0.00953
 888.17;19032.233;  175.817;18655.450;-0.00877
 888.73;18884.233;  189.483;18492.450;-0.00920
 889.28;18783.233;  190.150;18251.117;-0.01261
 889.84;18610.900;  191.817;18020.450;-0.01415
 890.40;18476.567;  194.817;17792.450;-0.01656
 890.96;18277.900;  199.483;17628.450;-0.01589
 891.51;18020.567;  189.483;17470.117;-0.01362
 892.07;17695.900;  183.817;17244.117;-0.01135
 892.63;17555.900;  190.483;17036.783;-0.01318
 893.19;17465.900;  200.817;16880.117;-0.01499
 893.74;17340.567;  215.150;16772.783;-0.01464
 894.30;17133.900;  206.150;16671.450;-0.01203
 894.86;16998.900;  185.150;16510.450;-0.01280
 895.42;16917.567;  176.483;16397.450;-0.01371
 895.97;16849.900;  175.150;16362.450;-0.01288
 896.53;16715.233;  203.817;16299.450;-0.01108
 897.09;16679.233;  212.817;16258.117;-0.01125
 897.65;16599.567;  225.483;16079.783;-0.01401
 898.20;16567.567;  228.483;15994.117;-0.01552
 898.76;16477.233;  215.150;15888.117;-0.01602
 899.32;16413.233;  215.483;15824.450;-0.01608
 899.87;16257.900;  206.483;15765.117;-0.01354
 900.43;16113.233;  206.150;15631.783;-0.01335
 900.99;15939.233;  194.483;15508.450;-0.01205
 901.54;15802.233;  181.150;15319.450;-0.01363
 902.10;15676.900;  193.150;15133.117;-0.01553
 902.66;15517.900;  208.483;14918.117;-0.01736
 903.21;15340.900;  221.817;14754.117;-0.01719
 903.77;15141.233;  229.483;14588.450;-0.01641
 904.33;14952.900;  209.483;14443.783;-0.01526
 904.88;14800.900;  198.150;14329.783;-0.01424
 905.44;14697.567;  177.150;14293.450;-0.01226
 906.00;14652.900;  191.150;14324.117;-0.00999
 906.55;14674.233;  207.483;14294.117;-0.01156
 907.11;14544.567;  214.150;14239.117;-0.00936
 907.67;14329.900;  205.817;14016.117;-0.00976
 908.22;14087.567;  196.150;13855.783;-0.00731
 908.78;14035.233;  187.817;13715.783;-0.01014
 909.33;13975.233;  195.483;13616.783;-0.01145
 909.89;13967.900;  192.150;13488.783;-0.01537
 910.45;13857.233;  201.150;13406.783;-0.01457
 911.00;13804.233;  191.483;13362.117;-0.01434
 911.56;13655.233;  203.817;13272.117;-0.01255
 912.12;13467.900;  208.483;13101.117;-0.01218
 912.67;13342.900;  221.483;12951.117;-0.01316
 913.23;13154.233;  194.150;12807.450;-0.01178
 913.78;12993.900;  178.483;12651.783;-0.01175
 914.34;12915.900;  201.483;12642.117;-0.00945
 914.89;12957.567;  216.483;12543.117;-0.01436
 915.45;12924.900;  227.150;12558.117;-0.01273
 916.01;12772.567;  195.483;12386.117;-0.01355
 916.56;12593.233;  201.483;12282.450;-0.01103
 917.12;12484.233;  196.817;12063.117;-0.01515
 917.67;12373.233;  195.483;11981.117;-0.01421
 918.23;12280.233;  182.817;11944.450;-0.01223
 918.78;12177.567;  186.483;11927.117;-0.00917
 919.34;12033.900;  188.817;11843.783;-0.00703
 919.89;11906.567;  199.150;11694.117;-0.00795
 920.45;11825.567;  185.817;11531.783;-0.01110
 921.00;11723.567;  168.817;11330.783;-0.01502
 921.56;11607.567;  176.150;11296.783;-0.01197
 922.11;11385.233;  175.150;11154.450;-0.00903
 922.67;11271.567;  202.483;11048.450;-0.00884
 923.22;11121.233;  191.150;10815.450;-0.01232
 923.78;11056.233;  202.817;10632.117;-0.01731
 924.33;10887.567;  195.817;10497.117;-0.01616
 924.89;10672.233;  196.483;10361.117;-0.01309
 925.44;10469.233;  204.817;10248.117;-0.00946
 926.00;10360.233;  201.150;10018.783;-0.01485
 926.55;10246.567;  205.150; 9867.117;-0.01673
 927.11;10131.567;  188.150; 9720.450;-0.01834
 927.66;10012.567;  177.817; 9717.117;-0.01325
 928.22; 9971.567;  174.483; 9670.783;-0.01354
 928.77; 9958.567;  190.150; 9636.117;-0.01458
 929.33; 9948.233;  204.150; 9587.783;-0.01637
 929.88; 9936.900;  205.150; 9516.450;-0.01918
 930.43; 9878.567;  182.483; 9493.450;-0.01760
 930.99; 9832.233;  174.817; 9470.117;-0.01660
 931.54; 9754.900;  167.150; 9456.783;-0.01372
 932.10; 9781.233;  190.150; 9473.117;-0.01418
 932.65; 9796.233;  197.150; 9480.117;-0.01454
 933.21; 9821.900;  198.483; 9496.450;-0.01494
 933.76; 9815.900;  187.483; 9472.117;-0.01579
 934.31; 9817.900;  183.150; 9454.117;-0.01672
 934.87; 9793.567;  190.150; 9433.783;-0.01658
 935.42; 9785.900;  199.483; 9431.450;-0.01636
 935.98; 9734.567;  195.483; 9388.450;-0.01605
 936.53; 9769.567;  193.817; 9335.450;-0.02015
 937.08; 9729.900;  191.150; 9347.783;-0.01776
 937.64; 9660.567;  197.817; 9356.783;-0.01417
 938.19; 9564.233;  196.483; 9425.117;-0.00650
 938.74; 9526.567;  199.817; 9340.117;-0.00877
 939.30; 9581.900;  187.150; 9339.783;-0.01134
 939.85; 9584.567;  186.483; 9209.783;-0.01767
 940.40; 9583.233;  173.817; 9251.783;-0.01557
 940.96; 9528.567;  187.150; 9238.450;-0.01370
 941.51; 9507.233;  189.483; 9244.783;-0.01241
 942.06; 9438.233;  197.150; 9160.450;-0.01325
 942.62; 9360.233;  184.817; 9036.783;-0.01559
 943.17; 9300.900;  195.150; 8966.450;-0.01625
 943.72; 9209.567;  180.483; 8903.117;-0.01500
 944.28; 9140.233;  199.483; 8795.117;-0.01710
 944.83; 9086.233;  184.150; 8766.783;-0.01587
 945.38; 9108.567;  194.483; 8735.117;-0.01859
 945.94; 9118.233;  186.483; 8804.450;-0.01553
 946.49; 9089.233;  205.150; 8772.783;-0.01575
 947.04; 8939.900;  208.817; 8738.117;-0.01015
 947.60; 8828.900;  215.150; 8638.117;-0.00973
 948.15; 8723.567;  203.483; 8519.117;-0.01055
 948.70; 8676.900;  212.817; 8413.783;-0.01371
 949.25; 8577.567;  206.150; 8325.117;-0.01330
 949.81; 8448.900;  208.817; 8271.117;-0.00947
 950.36; 8331.567;  198.483; 8157.117;-0.00942
 950.91; 8192.900;  207.150; 8037.783;-0.00852
 951.46; 8070.900;  203.817; 7873.117;-0.01106
 952.02; 7936.567;  207.150; 7734.117;-0.01153
 952.57; 7835.567;  207.150; 7606.450;-0.01324
 953.12; 7716.233;  218.483; 7526.117;-0.01115
 953.67; 7622.900;  218.150; 7443.783;-0.01063
 954.23; 7531.900;  215.817; 7359.450;-0.01036
 954.78; 7419.233;  208.150; 7234.450;-0.01127
 955.33; 7290.567;  218.150; 7119.783;-0.01062
 955.88; 7184.900;  217.150; 6980.117;-0.01296
 956.44; 7154.900;  230.483; 6838.450;-0.02032
 956.99; 7096.233;  228.817; 6737.117;-0.02333
 957.54; 7044.567;  223.817; 6672.783;-0.02434
 958.09; 6973.567;  222.150; 6636.783;-0.02222
 958.64; 6911.233;  206.817; 6607.450;-0.02014
 959.20; 6818.233;  203.483; 6532.450;-0.01918
 959.75; 6720.900;  199.817; 6496.450;-0.01521
 960.30; 6679.900;  218.150; 6441.783;-0.01631
 960.85; 6665.233;  225.150; 6424.450;-0.01655
 961.40; 6687.567;  228.817; 6381.117;-0.02111
 961.95; 6706.900;  231.817; 6360.783;-0.02386
 962.51; 6673.567;  239.483; 6360.117;-0.02169
 963.06; 6618.233;  242.817; 6380.117;-0.01653
 963.61; 6572.900;  234.150; 6314.783;-0.01805
 964.16; 6565.900;  235.150; 6258.450;-0.02162
 964.71; 6608.233;  222.483; 6212.117;-0.02781
 965.26; 6642.900;  213.150; 6253.117;-0.02716
 965.81; 6668.567;  210.817; 6289.117;-0.02630
 966.36; 6637.900;  208.483; 6323.783;-0.02175
 966.92; 6601.900;  216.150; 6305.117;-0.02067
 967.47; 6649.233;  218.483; 6338.117;-0.02154
 968.02; 6653.900;  232.483; 6354.117;-0.02076
 968.57; 6695.233;  234.817; 6375.450;-0.02205
 969.12; 6650.567;  219.817; 6368.783;-0.01946
 969.67; 6705.233;  204.483; 6420.783;-0.01943
 970.22; 6742.900;  194.150; 6469.783;-0.01850
 970.77; 6879.233;  199.817; 6539.117;-0.02270
 971.32; 6969.233;  197.483; 6593.117;-0.02482
 971.87; 7040.233;  198.817; 6693.117;-0.02261
 972.42; 7076.900;  215.150; 6793.117;-0.01834
 972.98; 7101.233;  220.817; 6908.783;-0.01232
 973.53; 7165.567;  231.483; 6996.117;-0.01074
 974.08; 7254.567;  215.483; 7040.450;-0.01342
 974.63; 7403.900;  223.483; 7078.450;-0.02014
 975.18; 7506.900;  218.483; 7103.117;-0.02475
 975.73; 7564.900;  224.817; 7157.450;-0.02480
 976.28; 7555.233;  221.483; 7219.117;-0.02037
 976.83; 7559.567;  221.483; 7315.450;-0.01469
 977.38; 7602.233;  219.483; 7373.783;-0.01365
 977.93; 7638.233;  222.150; 7387.450;-0.01494
 978.48; 7717.233;  228.483; 7365.783;-0.02088
 979.03; 7731.900;  234.817; 7358.117;-0.02221
 979.58; 7807.567;  221.483; 7329.117;-0.02829
 980.13; 7764.233;  207.150; 7367.783;-0.02340
 980.68; 7664.233;  186.483; 7310.450;-0.02105
 981.23; 7549.567;  185.817; 7278.117;-0.01631
 981.78; 7507.567;  207.150; 7207.450;-0.01823
 982.33; 7534.567;  219.150; 7257.117;-0.01679
 982.88; 7522.233;  232.483; 7211.783;-0.01890
 983.43; 7488.233;  218.150; 7145.783;-0.02095
 983.98; 7374.233;  215.150; 6984.117;-0.02434
 984.53; 7250.567;  203.817; 6873.450;-0.02389
 985.08; 7168.233;  209.817; 6835.783;-0.02126
 985.63; 7103.567;  211.150; 6787.117;-0.02041
 986.18; 7080.567;  218.817; 6756.783;-0.02099
 986.73; 6994.233;  218.483; 6610.450;-0.02532
 987.27; 6933.567;  227.483; 6521.117;-0.02757
 987.82; 6807.233;  238.483; 6431.783;-0.02556
 988.37; 6728.233;  243.150; 6400.783;-0.02250
 988.92; 6667.567;  234.150; 6351.117;-0.02191
 989.47; 6610.900;  214.483; 6285.117;-0.02270
 990.02; 6571.233;  208.483; 6199.117;-0.02617
 990.57; 6461.233;  208.150; 6083.117;-0.02709
 991.12; 6387.900;  215.150; 6044.450;-0.02486
 991.67; 6240.233;  213.817; 5969.117;-0.01999
 992.22; 6150.567;  200.483; 5915.450;-0.01751
 992.77; 5997.233;  200.150; 5802.450;-0.01484
 993.31; 5952.900;  204.817; 5735.783;-0.01672
 993.86; 5903.567;  230.483; 5683.783;-0.01716
 994.41; 5901.233;  235.150; 5580.117;-0.02534
 994.96; 5743.567;  226.483; 5473.117;-0.02183
 995.51; 5596.900;  218.817; 5377.783;-0.01806
 996.06; 5430.567;  208.483; 5293.783;-0.01153
 996.61; 5335.900;  222.483; 5201.783;-0.01154
 997.15; 5243.567;  236.150; 5083.450;-0.01411
 997.70; 5163.567;  241.150; 4965.117;-0.01787
 998.25; 5087.567;  247.483; 4873.450;-0.01965
 998.80; 4950.900;  248.483; 4740.117;-0.01992
 999.35; 4777.567;  249.483; 4623.450;-0.01504
 999.90; 4590.900;  236.150; 4455.117;-0.01376
1000.44; 4412.233;  224.483; 4340.450;-0.00751
1000.99; 4293.567;  232.483; 4190.783;-0.01113
1001.54; 4210.567;  237.150; 4067.450;-0.01593
1002.09; 4135.900;  231.817; 3939.117;-0.02246
1002.64; 4050.567;  238.483; 3855.450;-0.02282
1003.18; 3944.567;  240.483; 3766.783;-0.02136
1003.73; 3835.900;  238.483; 3661.450;-0.02159
1004.28; 3722.233;  226.817; 3584.450;-0.01747
1004.83; 3600.900;  209.483; 3488.117;-0.01469
1005.38; 3530.233;  210.150; 3420.783;-0.01456
1005.92; 3481.900;  219.150; 3321.783;-0.02185
1006.47; 3408.900;  236.817; 3231.783;-0.02495
1007.02; 3354.900;  235.483; 3140.117;-0.03098
1007.57; 3241.567;  222.817; 3087.450;-0.02276
1008.11; 3167.567;  211.817; 3028.450;-0.02094
1008.66; 3067.900;  205.150; 2973.450;-0.01457
1009.21; 3020.900;  192.483; 2907.783;-0.01773
1009.75; 2963.900;  177.817; 2862.117;-0.01616
1010.30; 2921.233;  170.150; 2793.117;-0.02071
1010.85; 2834.233;  176.817; 2712.783;-0.02032
1011.40; 2738.233;  204.150; 2628.450;-0.01923
1011.94; 2651.567;  221.817; 2545.783;-0.01933
1012.49; 2589.567;  216.483; 2464.450;-0.02352
1013.04; 2521.567;  194.150; 2362.117;-0.03082
1013.58; 2437.900;  184.150; 2325.117;-0.02230
1014.13; 2360.567;  188.483; 2268.117;-0.01889
1014.68; 2309.900;  196.483; 2233.450;-0.01600
1015.23; 2255.567;  203.150; 2181.450;-0.01597
1015.77; 2188.233;  199.817; 2113.117;-0.01672
1016.32; 2123.900;  204.817; 2072.450;-0.01180
1016.87; 2055.233;  209.483; 2012.783;-0.01010
1017.41; 2031.900;  206.817; 1977.450;-0.01315
1017.96; 2011.233;  194.817; 1953.450;-0.01404
1018.50; 1971.567;  186.483; 1926.450;-0.01112
1019.05; 1896.233;  188.483; 1903.450; 0.00183
1019.60; 1823.900;  182.817; 1815.783;-0.00215
1020.14; 1777.567;  196.150; 1752.783;-0.00686
1020.69; 1768.567;  196.150; 1698.117;-0.01991
1021.24; 1746.900;  209.483; 1650.450;-0.02814
1021.78; 1715.233;  188.483; 1620.450;-0.02784
1022.33; 1663.567;  190.150; 1592.450;-0.02148
1022.87; 1584.233;  182.817; 1587.783; 0.00110
1023.42; 1525.900;  198.150; 1567.117; 0.01328
1023.97; 1472.567;  200.150; 1516.117; 0.01462
1024.51; 1463.567;  212.150; 1465.117; 0.00054
1025.06; 1435.567;  200.483; 1401.117;-0.01229
1025.60; 1415.900;  198.817; 1340.783;-0.02767
1026.15; 1373.900;  181.150; 1307.783;-0.02477
1026.70; 1343.233;  185.483; 1284.783;-0.02250
1027.24; 1323.900;  195.483; 1279.783;-0.01732
1027.79; 1311.233;  200.483; 1270.450;-0.01625
1028.33; 1292.233;  197.483; 1252.450;-0.01608
1028.88; 1249.233;  188.817; 1215.450;-0.01406
1029.42; 1223.900;  208.150; 1198.450;-0.01102
1029.97; 1208.900;  197.817; 1156.450;-0.02313
1030.51; 1183.233;  190.150; 1127.117;-0.02526
1031.06; 1140.567;  182.817; 1088.783;-0.02414
1031.61; 1118.900;  192.483; 1063.117;-0.02697
1032.15; 1108.900;  210.150; 1050.450;-0.02920
1032.70; 1093.900;  202.817; 1024.117;-0.03542
1033.24; 1057.233;  206.483; 1018.117;-0.02044
1033.79; 1052.567;  200.817; 1020.450;-0.01669
1034.33; 1043.900;  199.817; 1016.450;-0.01436
1034.88; 1051.567;  201.817; 1008.783;-0.02244
1035.42; 1017.567;  202.817;  979.450;-0.02081
1035.97;  989.900;  204.483;  950.450;-0.02238
1036.51;  967.567;  206.483;  931.450;-0.02111
1037.06;  970.567;  200.817;  944.117;-0.01519
1037.60;  985.567;  207.150;  948.783;-0.02102
1038.14;  970.567;  204.150;  928.783;-0.02435
1038.69;  947.900;  222.150;  927.783;-0.01221
1039.23;  949.567;  234.483;  935.783;-0.00845
1039.78;  948.233;  235.150;  948.783; 0.00033
1040.32;  937.233;  224.483;  915.783;-0.01327
1040.87;  903.567;  208.483;  887.117;-0.01040
1041.41;  896.233;  198.150;  864.117;-0.02045
1041.96;  908.900;  200.817;  882.783;-0.01632
1042.50;  906.900;  197.817;  893.117;-0.00853
1043.04;  912.233;  213.817;  899.117;-0.00823
1043.59;  910.233;  217.150;  867.450;-0.02767
1044.13;  912.567;  212.483;  869.450;-0.02761
1044.68;  892.233;  205.817;  862.117;-0.01949
1045.22;  873.233;  199.150;  873.783; 0.00035
1045.76;  863.900;  201.817;  869.450; 0.00363
1046.31;  850.233;  193.483;  861.783; 0.00757
1046.85;  845.900;  200.483;  842.117;-0.00255
1047.40;  836.567;  202.483;  813.783;-0.01589
1047.94;  843.567;  215.150;  808.783;-0.02473
1048.48;  838.233;  211.150;  810.117;-0.01992
1049.03;  843.900;  214.483;  793.450;-0.03628
1049.57;  847.233;  229.150;  787.117;-0.04444
1050.11;  835.233;  222.817;  774.117;-0.04566
1050.66;  806.233;  218.483;  779.117;-0.02051
1051.20;  790.900;  206.483;  794.450; 0.00263
1051.74;  778.567;  200.817;  788.117; 0.00712
1052.29;  758.233;  200.150;  780.783; 0.01720
1052.83;  752.900;  199.150;  748.117;-0.00377
1053.37;  749.567;  224.817;  744.783;-0.00398
1053.92;  769.233;  234.150;  739.783;-0.02459
1054.46;  764.900;  236.483;  734.117;-0.02607
1055.00;  786.900;  231.483;  739.117;-0.03907
1055.55;  776.233;  230.817;  738.117;-0.03146
1056.09;  763.900;  223.817;  747.783;-0.01316
1056.63;  722.233;  215.817;  711.783;-0.00906
1057.17;  713.900;  216.483;  709.117;-0.00420
1057.72;  713.567;  225.150;  697.450;-0.01457
1058.26;  722.233;  223.483;  705.783;-0.01457
1058.80;  717.567;  229.817;  700.450;-0.01551
1059.35;  693.567;  230.483;  686.450;-0.00673
1059.89;  676.233;  230.150;  672.450;-0.00370
1060.43;  657.900;  227.817;  654.783;-0.00316
1060.97;  650.233;  223.817;  667.117; 0.01686
1061.52;  649.233;  231.150;  682.450; 0.03320
1062.06;  666.567;  231.483;  671.450; 0.00485
1062.60;  668.567;  236.483;  658.450;-0.01029
1063.14;  671.233;  232.483;  640.783;-0.03124
1063.69;  642.233;  216.483;  640.117;-0.00216
1064.23;  614.233;  208.817;  619.783; 0.00590
1064.77;  588.233;  200.483;  598.450; 0.01129
1065.31;  597.900;  201.817;  577.450;-0.02302
1065.85;  599.900;  206.483;  567.117;-0.03779
1066.40;  604.233;  205.150;  579.450;-0.02784
1066.94;  592.233;  217.817;  579.117;-0.01549
1067.48;  593.233;  209.150;  587.783;-0.00621
1068.02;  561.900;  233.817;  562.450; 0.00073
1068.56;  551.567;  216.817;  564.783; 0.01682
1069.10;  548.567;  212.817;  549.783; 0.00157
1069.65;  575.900;  195.817;  566.450;-0.01093
1070.19;  579.567;  208.817;  566.783;-0.01524
1070.73;  600.567;  223.817;  582.783;-0.02100
1071.27;  580.233;  215.817;  567.117;-0.01592
1071.81;  567.567;  207.150;  562.117;-0.00662
1072.35;  557.233;  201.817;  549.117;-0.01003
1072.90;  556.233;  197.150;  546.783;-0.01158
1073.44;  549.233;  202.817;  540.117;-0.01158
1073.98;  537.567;  206.150;  531.450;-0.00809
1074.52;  539.233;  224.483;  538.783;-0.00062
1075.06;  556.900;  218.483;  542.450;-0.01895
1075.60;  533.233;  207.483;  531.450;-0.00238
1076.14;  544.567;  204.817;  514.117;-0.04078
1076.68;  521.233;  207.150;  504.450;-0.02385
1077.22;  544.567;  225.817;  504.783;-0.05790
1077.76;  534.567;  214.817;  498.117;-0.05256
1078.31;  546.233;  229.817;  499.783;-0.06895
1078.85;  542.567;  226.483;  517.117;-0.03646
1079.39;  538.233;  243.817;  525.450;-0.01928
1079.93;  522.567;  237.817;  507.783;-0.02315
1080.47;  504.233;  227.483;  476.450;-0.04595
1081.01;  483.567;  216.150;  474.783;-0.01450
1081.55;  499.567;  208.483;  488.783;-0.01639
1082.09;  499.567;  205.817;  488.783;-0.01624
1082.63;  512.233;  210.150;  496.450;-0.02331
1083.17;  498.567;  221.150;  500.783; 0.00346
1083.71;  508.233;  228.817;  501.450;-0.01067
1084.25;  505.567;  224.483;  471.117;-0.05678
1084.79;  501.567;  214.483;  446.450;-0.09258
1085.33;  489.900;  202.817;  450.783;-0.06361
1085.87;  465.233;  199.483;  468.450; 0.00523
1086.41;  468.567;  214.483;  471.450; 0.00490
1086.95;  477.900;  222.150;  467.117;-0.01871
1087.49;  487.900;  225.817;  454.783;-0.05867
1088.03;  482.233;  216.817;  454.117;-0.04863
1088.57;  473.900;  219.817;  450.783;-0.04143
1089.11;  479.567;  222.150;  448.117;-0.05659
1089.65;  495.567;  233.150;  458.783;-0.06559
1090.19;  490.567;  238.483;  468.117;-0.04051
1090.73;  480.233;  240.483;  471.783;-0.01558
1091.27;  469.900;  238.817;  466.117;-0.00717
1091.81;  469.900;  238.483;  458.117;-0.02270
1092.35;  483.900;  247.483;  461.450;-0.04333
1092.89;  470.233;  232.150;  457.450;-0.02397
1093.43;  457.233;  223.817;  445.783;-0.02184
1093.97;  439.567;  210.150;  441.117; 0.00292
1094.51;  435.567;  208.483;  440.450; 0.00924
1095.04;  441.900;  218.483;  442.783; 0.00171
1095.58;  438.900;  238.817;  436.783;-0.00462
1096.12;  436.900;  242.817;  428.783;-0.01855
1096.66;  442.567;  239.817;  430.450;-0.02676
1097.20;  455.233;  235.817;  449.450;-0.01160
1097.74;  471.900;  246.817;  456.783;-0.03019
1098.28;  444.567;  235.817;  457.117; 0.02535
1098.82;  441.567;  230.483;  453.117; 0.02314
1099.36;  412.233;  228.150;  446.450; 0.07404
1099.89;  414.567;  230.150;  447.450; 0.07126

