
Integration time [ms]:   0.300
Averaging Nr. [scans]: 1
Smoothing Nr. [pixels]: 1
Data measured with spectrometer [name]: 1906252U1
Wave   ;Sample   ;Dark     ;Reference;Absorbance
[nm]   ;[counts] ;[counts] ;[counts] ;[A.U]

 161.30;  282.372;  271.207;  271.637; 0.00000
 161.90;  268.741;  265.524;  261.712; 0.00000
 162.51;  260.448;  259.038;  260.433;-0.00461
 163.11;  255.857;  265.693;  251.834; 0.00000
 163.71;  256.489;  276.696;  266.803; 0.00000
 164.31;  273.829;  294.270;  273.488; 0.00000
 164.91;  283.425;  288.393;  287.410; 0.00000
 165.52;  284.622;  277.299;  279.261;-0.57202
 166.12;  275.765;  271.979;  273.718;-0.33800
 166.72;  270.473;  272.971;  259.755; 0.00000
 167.32;  279.087;  271.656;  271.040; 0.00000
 167.93;  280.577;  261.266;  267.518;-0.48980
 168.53;  288.016;  254.112;  260.296;-0.73902
 169.13;  295.973;  264.427;  257.261; 0.00000
 169.73;  289.397;  271.677;  266.351; 0.00000
 170.33;  308.533;  291.614;  320.561; 0.23322
 170.94;  313.575;  317.756;  347.746; 5.00000
 171.54;  343.641;  335.278;  387.239; 0.79332
 172.14;  344.599;  338.926;  375.538; 0.80983
 172.74;  337.586;  324.358;  373.181; 0.56713
 173.34;  330.634;  319.589;  355.569; 0.51290
 173.95;  336.658;  309.596;  343.923; 0.10327
 174.55;  345.963;  318.289;  355.228; 0.12541
 175.15;  351.889;  320.689;  367.155; 0.17298
 175.75;  351.938;  322.370;  380.195; 0.29130
 176.35;  371.095;  332.415;  382.036; 0.10818
 176.95;  380.946;  327.740;  392.907; 0.08806
 177.56;  374.725;  327.608;  398.355; 0.17653
 178.16;  346.678;  316.738;  399.298; 0.44051
 178.76;  330.214;  316.306;  398.487; 0.77150
 179.36;  325.750;  310.874;  401.343; 0.78401
 179.96;  337.895;  304.800;  395.813; 0.43934
 180.56;  339.712;  308.938;  392.969; 0.43625
 181.17;  351.841;  318.009;  403.448; 0.40232
 181.77;  350.234;  318.897;  417.181; 0.49642
 182.37;  352.834;  306.653;  404.111; 0.32435
 182.97;  365.846;  319.309;  413.789; 0.30755
 183.57;  392.339;  323.525;  427.944; 0.18110
 184.17;  427.172;  336.736;  473.104; 0.17837
 184.78;  431.660;  316.624;  484.587; 0.16438
 185.38;  439.567;  315.012;  504.833; 0.18298
 185.98;  451.359;  315.783;  504.638; 0.14394
 186.58;  483.831;  316.598;  510.449; 0.06414
 187.18;  486.722;  313.002;  491.678; 0.01222
 187.78;  495.778;  324.256;  526.070; 0.07063
 188.38;  491.535;  331.840;  541.159; 0.11752
 188.98;  507.908;  337.804;  574.199; 0.14292
 189.59;  508.586;  332.575;  567.529; 0.12544
 190.19;  510.786;  326.870;  580.708; 0.13994
 190.79;  502.009;  326.914;  573.939; 0.14947
 191.39;  494.010;  317.159;  564.285; 0.14531
 191.99;  493.099;  322.498;  545.363; 0.11606
 192.59;  486.672;  317.307;  539.929; 0.11874
 193.19;  481.775;  313.765;  525.712; 0.10089
 193.79;  476.671;  325.164;  530.280; 0.13157
 194.39;  475.735;  328.250;  517.658; 0.10865
 195.00;  468.232;  327.216;  511.139; 0.11537
 195.60;  446.817;  305.566;  480.732; 0.09346
 196.20;  421.881;  304.088;  469.473; 0.14738
 196.80;  402.069;  305.278;  453.989; 0.18651
 197.40;  393.925;  313.686;  455.186; 0.24637
 198.00;  386.187;  320.693;  452.457; 0.30359
 198.60;  372.016;  317.270;  442.943; 0.36089
 199.20;  361.596;  312.435;  427.513; 0.36938
 199.80;  365.183;  303.957;  416.753; 0.26536
 200.40;  361.295;  299.492;  396.868; 0.19744
 201.00;  338.516;  293.841;  371.434; 0.23976
 201.60;  326.814;  292.845;  340.403; 0.14614
 202.21;  321.650;  298.995;  352.240; 0.37112
 202.81;  339.303;  303.760;  367.883; 0.25626
 203.41;  332.353;  301.801;  377.921; 0.39647
 204.01;  326.042;  296.447;  373.611; 0.41619
 204.61;  320.236;  287.965;  374.799; 0.42987
 205.21;  335.111;  280.528;  391.328; 0.30748
 205.81;  343.357;  276.000;  394.567; 0.24558
 206.41;  334.784;  281.190;  389.667; 0.30622
 207.01;  324.288;  291.585;  373.516; 0.39887
 207.61;  307.985;  290.832;  349.221; 0.53198
 208.21;  314.524;  294.007;  340.088; 0.35139
 208.81;  313.151;  285.376;  350.048; 0.36706
 209.41;  325.708;  292.971;  355.294; 0.27961
 210.01;  320.233;  286.985;  361.835; 0.35243
 210.61;  318.060;  290.534;  351.990; 0.34883
 211.21;  320.969;  293.399;  356.219; 0.35767
 211.81;  314.027;  300.157;  352.258; 0.57478
 212.41;  309.947;  301.896;  344.513; 0.72373
 213.01;  311.709;  296.332;  351.625; 0.55579
 213.61;  323.420;  285.263;  357.339; 0.27622
 214.21;  326.837;  282.939;  368.411; 0.28938
 214.81;  340.824;  278.704;  361.387; 0.12419
 215.41;  348.418;  282.466;  362.645; 0.08483
 216.01;  349.960;  278.247;  362.189; 0.06838
 216.61;  320.556;  287.920;  357.792; 0.33062
 217.21;  304.479;  290.599;  357.391; 0.68233
 217.81;  299.227;  297.221;  367.800; 1.54640
 218.41;  309.844;  301.628;  379.081; 0.97442
 219.01;  320.925;  307.801;  388.505; 0.78885
 219.61;  324.659;  301.739;  384.906; 0.55973
 220.21;  322.275;  297.568;  378.507; 0.51534
 220.81;  313.486;  283.737;  372.713; 0.47580
 221.41;  324.797;  284.091;  376.024; 0.35382
 222.01;  326.493;  280.426;  372.049; 0.29862
 222.61;  343.218;  298.953;  367.451; 0.18962
 223.21;  333.848;  301.813;  357.103; 0.23703
 223.81;  354.427;  301.952;  360.676; 0.04886
 224.41;  340.065;  281.875;  343.618; 0.02574
 225.01;  336.374;  269.317;  340.250; 0.02441
 225.61;  313.809;  274.108;  341.033; 0.22678
 226.21;  318.012;  273.112;  349.918; 0.23315
 226.81;  319.598;  286.490;  349.175; 0.27723
 227.41;  322.039;  284.059;  344.282; 0.20020
 228.01;  333.343;  302.172;  351.241; 0.19706
 228.61;  352.926;  306.727;  360.474; 0.06572
 229.21;  348.818;  303.825;  362.700; 0.11679
 229.81;  340.232;  308.998;  372.791; 0.31014
 230.41;  316.170;  299.055;  383.396; 0.69267
 231.01;  317.044;  300.808;  405.942; 0.81128
 231.61;  311.862;  287.307;  401.095; 0.66596
 232.21;  312.268;  300.328;  383.489; 0.84293
 232.81;  318.052;  296.307;  370.928; 0.53551
 233.41;  319.453;  302.578;  372.995; 0.62043
 234.00;  331.697;  298.240;  379.918; 0.38761
 234.60;  324.729;  290.487;  363.623; 0.32957
 235.20;  318.032;  295.152;  359.264; 0.44747
 235.80;  313.869;  295.330;  365.432; 0.57764
 236.40;  317.154;  302.765;  379.044; 0.72436
 237.00;  325.591;  303.584;  384.824; 0.56720
 237.60;  323.739;  294.000;  377.651; 0.44915
 238.20;  333.305;  295.121;  389.214; 0.39168
 238.80;  318.774;  274.112;  389.668; 0.41285
 239.40;  321.194;  279.177;  403.402; 0.47079
 240.00;  311.764;  284.599;  402.640; 0.63802
 240.59;  321.751;  298.133;  401.312; 0.64034
 241.19;  329.178;  297.989;  399.745; 0.51356
 241.79;  332.151;  288.710;  384.715; 0.34439
 242.39;  342.351;  292.222;  383.909; 0.26222
 242.99;  339.225;  286.642;  375.121; 0.22600
 243.59;  338.519;  289.230;  388.763; 0.30522
 244.19;  328.658;  286.160;  385.560; 0.36902
 244.79;  332.099;  287.511;  384.652; 0.33819
 245.39;  335.670;  287.293;  395.554; 0.34983
 245.98;  330.902;  273.053;  391.453; 0.31106
 246.58;  323.062;  274.487;  389.290; 0.37354
 247.18;  337.459;  285.342;  384.364; 0.27875
 247.78;  342.865;  295.696;  398.758; 0.33944
 248.38;  348.273;  288.656;  421.162; 0.34686
 248.98;  331.412;  277.356;  419.988; 0.42137
 249.58;  325.096;  265.673;  430.671; 0.44353
 250.17;  329.617;  275.285;  426.842; 0.44552
 250.77;  329.073;  283.143;  431.967; 0.51058
 251.37;  333.181;  286.929;  425.089; 0.47525
 251.97;  324.909;  270.293;  429.805; 0.46548
 252.57;  319.331;  265.298;  436.882; 0.50182
 253.17;  331.609;  272.929;  449.172; 0.47762
 253.77;  339.724;  284.186;  466.282; 0.51571
 254.36;  347.233;  295.474;  468.774; 0.52481
 254.96;  344.357;  295.333;  480.567; 0.57731
 255.56;  325.758;  288.604;  484.301; 0.72158
 256.16;  325.310;  278.462;  506.509; 0.68734
 256.76;  303.242;  277.524;  496.109; 0.92939
 257.36;  320.074;  276.735;  508.603; 0.72836
 257.95;  327.856;  264.992;  503.713; 0.57949
 258.55;  336.554;  264.239;  518.084; 0.54534
 259.15;  329.595;  260.564;  510.454; 0.55871
 259.75;  325.137;  269.345;  523.998; 0.65938
 260.35;  332.757;  267.461;  538.318; 0.61785
 260.94;  316.509;  268.819;  539.764; 0.75445
 261.54;  307.190;  275.530;  547.771; 0.93445
 262.14;  309.866;  279.723;  553.422; 0.95809
 262.74;  337.296;  296.084;  592.169; 0.85640
 263.34;  351.724;  285.302;  604.600; 0.68188
 263.93;  344.998;  271.414;  619.201; 0.67453
 264.53;  338.579;  269.158;  628.783; 0.71436
 265.13;  331.015;  270.950;  628.566; 0.77479
 265.73;  335.255;  275.426;  648.466; 0.79485
 266.33;  348.196;  278.566;  678.397; 0.75908
 266.92;  343.483;  275.029;  689.673; 0.78228
 267.52;  339.866;  279.954;  705.726; 0.85167
 268.12;  335.401;  273.264;  717.281; 0.85405
 268.72;  333.283;  281.951;  749.175; 0.95914
 269.31;  344.276;  293.596;  782.505; 0.98439
 269.91;  340.466;  296.813;  783.686; 1.04740
 270.51;  353.880;  298.884;  823.747; 0.97971
 271.11;  358.161;  296.018;  844.685; 0.94592
 271.70;  355.151;  281.274;  877.686; 0.90704
 272.30;  353.036;  270.568;  887.924; 0.87425
 272.90;  357.863;  264.784;  909.412; 0.84046
 273.50;  363.321;  274.785;  916.521; 0.86024
 274.09;  373.328;  285.359;  947.539; 0.87664
 274.69;  368.797;  293.425;  961.690; 0.94774
 275.29;  373.822;  297.126; 1011.041; 0.96887
 275.89;  372.972;  301.162; 1057.168; 1.02234
 276.48;  382.189;  306.441; 1108.365; 1.02476
 277.08;  399.498;  303.217; 1149.330; 0.94389
 277.68;  405.755;  300.562; 1156.928; 0.91067
 278.28;  412.888;  297.934; 1188.748; 0.88926
 278.87;  411.018;  305.120; 1219.213; 0.93611
 279.47;  425.836;  316.402; 1279.019; 0.94430
 280.07;  420.690;  311.564; 1306.537; 0.95988
 280.66;  439.287;  305.599; 1329.806; 0.88429
 281.26;  449.091;  299.502; 1356.605; 0.84922
 281.86;  469.619;  299.353; 1408.460; 0.81385
 282.46;  458.487;  289.111; 1464.667; 0.84139
 283.05;  466.671;  270.001; 1525.842; 0.80520
 283.65;  476.078;  269.267; 1577.248; 0.80103
 284.25;  505.832;  276.537; 1628.707; 0.77064
 284.84;  514.927;  297.639; 1660.819; 0.79752
 285.44;  540.144;  304.585; 1722.349; 0.77950
 286.04;  545.099;  306.626; 1767.304; 0.78712
 286.63;  560.330;  299.604; 1827.551; 0.76792
 287.23;  563.365;  285.934; 1878.582; 0.75896
 287.83;  587.433;  285.987; 1956.635; 0.74368
 288.42;  610.603;  282.947; 2012.456; 0.72250
 289.02;  630.161;  281.018; 2081.351; 0.71235
 289.62;  646.824;  274.153; 2105.373; 0.69142
 290.21;  675.331;  278.965; 2173.882; 0.67949
 290.81;  706.298;  296.139; 2171.832; 0.66021
 291.41;  725.077;  301.675; 2217.279; 0.65555
 292.00;  734.388;  287.695; 2273.257; 0.64787
 292.60;  756.382;  266.816; 2355.570; 0.63008
 293.20;  793.425;  269.053; 2441.953; 0.61740
 293.79;  814.327;  275.331; 2498.541; 0.61539
 294.39;  841.571;  284.326; 2544.463; 0.60809
 294.99;  834.547;  280.435; 2588.095; 0.61957
 295.58;  873.762;  284.687; 2619.961; 0.59817
 296.18;  884.040;  271.100; 2672.236; 0.59300
 296.78;  939.995;  267.474; 2741.524; 0.56570
 297.37;  960.710;  256.039; 2819.912; 0.56091
 297.97; 1022.908;  255.858; 2927.442; 0.54194
 298.57; 1058.021;  262.727; 2989.557; 0.53513
 299.16; 1095.900;  278.359; 3083.789; 0.53549
 299.76; 1121.809;  281.775; 3176.366; 0.53729
 300.35; 1155.821;  281.214; 3269.362; 0.53359
 300.95; 1188.914;  278.404; 3324.462; 0.52445
 301.55; 1208.280;  287.229; 3346.846; 0.52138
 302.14; 1230.125;  278.314; 3431.366; 0.52018
 302.74; 1277.956;  277.164; 3537.862; 0.51297
 303.33; 1332.343;  277.506; 3665.575; 0.50677
 303.93; 1391.378;  284.053; 3763.621; 0.49725
 304.53; 1450.162;  290.889; 3809.743; 0.48222
 305.12; 1477.500;  285.666; 3889.067; 0.48050
 305.72; 1509.185;  304.345; 3962.749; 0.48236
 306.31; 1535.923;  292.556; 4062.826; 0.48177
 306.91; 1563.668;  290.122; 4183.574; 0.48532
 307.51; 1609.834;  280.000; 4278.734; 0.47813
 308.10; 1631.818;  295.710; 4394.048; 0.48677
 308.70; 1694.832;  291.190; 4468.751; 0.47367
 309.29; 1749.887;  287.634; 4547.826; 0.46441
 309.89; 1842.085;  264.902; 4638.675; 0.44297
 310.48; 1886.191;  273.673; 4739.754; 0.44242
 311.08; 1936.551;  268.620; 4876.118; 0.44129
 311.68; 1951.465;  273.221; 4959.384; 0.44596
 312.27; 2029.032;  278.703; 5074.278; 0.43772
 312.87; 2071.279;  271.869; 5225.848; 0.43982
 313.46; 2137.776;  276.691; 5385.013; 0.43851
 314.06; 2194.320;  276.193; 5529.885; 0.43759
 314.65; 2232.668;  282.238; 5632.559; 0.43825
 315.25; 2283.371;  283.262; 5774.255; 0.43860
 315.85; 2327.326;  277.637; 5914.876; 0.43938
 316.44; 2394.055;  287.913; 6071.938; 0.43874
 317.04; 2450.775;  295.255; 6216.984; 0.43890
 317.63; 2518.788;  310.823; 6400.341; 0.44059
 318.23; 2576.725;  298.737; 6546.296; 0.43816
 318.82; 2647.655;  293.221; 6674.883; 0.43305
 319.42; 2729.658;  273.276; 6781.545; 0.42317
 320.01; 2806.075;  280.055; 6929.646; 0.42036
 320.61; 2914.099;  290.511; 7164.652; 0.41832
 321.20; 2949.081;  285.758; 7272.939; 0.41888
 321.80; 3021.843;  292.860; 7497.718; 0.42162
 322.39; 3069.634;  275.154; 7636.540; 0.42066
 322.99; 3155.976;  275.755; 7857.556; 0.42035
 323.58; 3237.973;  286.597; 7977.531; 0.41595
 324.18; 3249.798;  287.901; 8124.673; 0.42257
 324.77; 3334.794;  292.485; 8318.013; 0.42127
 325.37; 3391.946;  278.984; 8442.167; 0.41869
 325.96; 3478.079;  276.253; 8588.958; 0.41434
 326.56; 3541.214;  298.768; 8771.095; 0.41713
 327.15; 3618.222;  300.036; 8947.778; 0.41600
 327.75; 3710.312;  300.925; 9129.536; 0.41322
 328.34; 3785.628;  272.723; 9291.838; 0.40950
 328.94; 3874.706;  266.072; 9447.905; 0.40559
 329.53; 3978.344;  277.765; 9658.876; 0.40398
 330.13; 4064.582;  293.098; 9872.460; 0.40482
 330.72; 4111.333;  297.428;10112.576; 0.41053
 331.32; 4191.491;  296.807;10347.750; 0.41173
 331.91; 4255.811;  286.021;10578.045; 0.41373
 332.51; 4384.890;  290.846;10832.428; 0.41075
 333.10; 4481.484;  280.941;11112.686; 0.41139
 333.69; 4562.663;  268.720;11343.870; 0.41149
 334.29; 4575.762;  259.020;11372.294; 0.41069
 334.88; 4544.033;  263.526;11404.218; 0.41542
 335.48; 4557.984;  274.151;11347.513; 0.41245
 336.07; 4616.835;  277.361;11521.065; 0.41347
 336.67; 4690.871;  271.793;11561.792; 0.40736
 337.26; 4766.818;  270.478;11724.744; 0.40611
 337.86; 4798.173;  274.661;11795.073; 0.40599
 338.45; 4855.664;  285.081;11996.201; 0.40863
 339.04; 4870.179;  280.248;12122.714; 0.41164
 339.64; 4950.293;  279.247;12324.855; 0.41141
 340.23; 5012.655;  276.541;12444.594; 0.40980
 340.83; 5143.394;  283.446;12579.002; 0.40312
 341.42; 5169.192;  284.034;12728.085; 0.40608
 342.02; 5211.835;  280.810;12860.717; 0.40674
 342.61; 5204.913;  285.029;12994.842; 0.41218
 343.20; 5287.081;  280.703;13173.363; 0.41082
 343.80; 5350.586;  275.024;13326.514; 0.41018
 344.39; 5399.862;  277.525;13574.777; 0.41429
 344.99; 5462.336;  284.701;13698.586; 0.41342
 345.58; 5557.082;  281.629;13941.331; 0.41318
 346.17; 5652.035;  272.425;14086.941; 0.40958
 346.77; 5716.604;  263.601;14425.499; 0.41449
 347.36; 5802.851;  267.766;14640.403; 0.41441
 347.96; 5854.524;  271.456;14918.073; 0.41886
 348.55; 5916.853;  272.039;15018.413; 0.41704
 349.14; 5951.366;  269.152;15148.264; 0.41806
 349.74; 6051.748;  282.193;15379.635; 0.41776
 350.33; 6147.734;  292.264;15619.281; 0.41790
 350.92; 6242.198;  292.029;15990.758; 0.42134
 351.52; 6338.815;  276.988;16197.719; 0.41936
 352.11; 6439.797;  277.642;16449.038; 0.41901
 352.70; 6530.227;  293.221;16652.467; 0.41879
 353.30; 6610.790;  299.069;16923.354; 0.42060
 353.89; 6668.923;  289.556;17199.826; 0.42337
 354.49; 6726.881;  295.537;17471.125; 0.42661
 355.08; 6860.668;  303.789;17648.240; 0.42246
 355.67; 6961.974;  306.509;17850.877; 0.42096
 356.27; 7023.852;  292.678;18013.082; 0.42038
 356.86; 7061.818;  288.376;18230.048; 0.42305
 357.45; 7161.767;  297.756;18507.331; 0.42372
 358.05; 7337.392;  297.214;18684.613; 0.41694
 358.64; 7427.408;  292.504;18894.298; 0.41617
 359.23; 7499.933;  289.300;19081.825; 0.41601
 359.83; 7574.828;  289.121;19433.380; 0.41957
 360.42; 7658.039;  293.174;19722.600; 0.42130
 361.01; 7720.269;  287.355;19981.487; 0.42318
 361.61; 7743.663;  287.502;20183.522; 0.42625
 362.20; 7754.195;  294.987;20496.718; 0.43270
 362.79; 7818.757;  302.910;20634.303; 0.43219
 363.38; 7918.956;  301.613;20815.514; 0.43024
 363.98; 8053.503;  289.171;20943.715; 0.42491
 364.57; 8133.938;  277.744;21176.149; 0.42490
 365.16; 8207.269;  288.573;21351.502; 0.42487
 365.76; 8276.378;  293.720;21537.287; 0.42508
 366.35; 8337.984;  294.920;21731.542; 0.42573
 366.94; 8408.917;  286.459;21913.791; 0.42532
 367.53; 8501.588;  286.426;22067.466; 0.42346
 368.13; 8536.934;  291.994;22246.489; 0.42534
 368.72; 8530.068;  285.482;22413.295; 0.42877
 369.31; 8560.462;  292.281;22597.374; 0.43099
 369.91; 8684.289;  283.382;22746.877; 0.42715
 370.50; 8791.496;  291.699;22820.059; 0.42332
 371.09; 8829.703;  278.017;22946.909; 0.42338
 371.68; 8825.789;  286.967;23106.324; 0.42691
 372.28; 8911.040;  294.984;23340.584; 0.42728
 372.87; 8978.287;  297.367;23443.502; 0.42591
 373.46; 9030.056;  297.723;23614.255; 0.42653
 374.05; 9071.636;  287.889;23758.158; 0.42684
 374.65; 9118.969;  290.440;23950.173; 0.42812
 375.24; 9227.811;  272.918;24146.349; 0.42585
 375.83; 9265.825;  275.848;24331.370; 0.42746
 376.42; 9384.998;  273.516;24515.563; 0.42498
 377.02; 9433.269;  293.907;24527.502; 0.42350
 377.61; 9518.107;  288.112;24762.668; 0.42351
 378.20; 9581.236;  297.747;24944.118; 0.42404
 378.79; 9723.673;  297.015;25086.217; 0.41990
 379.38; 9846.908;  282.191;25204.109; 0.41591
 379.98; 9919.280;  267.243;25344.469; 0.41466
 380.57; 9931.202;  272.112;25606.751; 0.41878
 381.16;10013.229;  291.609;25727.129; 0.41770
 381.75;10154.919;  289.589;25767.151; 0.41205
 382.35;10336.032;  283.703;25937.612; 0.40689
 382.94;10359.120;  271.231;26182.039; 0.40968
 383.53;10431.512;  279.541;26558.760; 0.41306
 384.12;10474.059;  269.432;26865.627; 0.41602
 384.71;10626.790;  284.069;27028.687; 0.41260
 385.31;10708.973;  287.699;27353.893; 0.41451
 385.90;10834.177;  299.731;27598.110; 0.41353
 386.49;10971.071;  283.306;27919.987; 0.41260
 387.08;11086.696;  296.763;28085.602; 0.41085
 387.67;11225.688;  302.047;28384.267; 0.41006
 388.26;11401.169;  312.463;28670.094; 0.40779
 388.86;11501.507;  297.866;29041.131; 0.40918
 389.45;11620.992;  285.685;29324.329; 0.40854
 390.04;11733.152;  279.860;29566.863; 0.40774
 390.63;11995.591;  284.795;29878.048; 0.40261
 391.22;12138.593;  294.422;30097.179; 0.40075
 391.81;12220.043;  303.408;30368.117; 0.40190
 392.41;12267.711;  324.211;30517.642; 0.40278
 393.00;12376.451;  349.022;30747.606; 0.40268
 393.59;12544.475;  379.676;31111.212; 0.40248
 394.18;12641.169;  399.780;31505.223; 0.40501
 394.77;12897.158;  433.703;31930.599; 0.40263
 395.36;12981.479;  473.557;32244.356; 0.40484
 395.95;13199.343;  524.323;32561.017; 0.40270
 396.55;13298.964;  566.236;32856.406; 0.40415
 397.14;13468.559;  594.577;33298.717; 0.40489
 397.73;13583.502;  601.786;33627.642; 0.40552
 398.32;13794.064;  612.294;34204.404; 0.40626
 398.91;14066.600;  621.039;34614.988; 0.40282
 399.50;14398.098;  632.059;35200.379; 0.39987
 400.09;14608.261;  605.452;35675.306; 0.39872
 400.68;14911.375;  582.293;36366.134; 0.39747
 401.27;15120.864;  548.561;37014.694; 0.39836
 401.87;15489.385;  525.771;37604.957; 0.39409
 402.46;15775.876;  501.053;38119.893; 0.39143
 403.05;16082.028;  484.389;38675.942; 0.38891
 403.64;16300.230;  490.521;39240.769; 0.38935
 404.23;16586.244;  484.797;39841.080; 0.38815
 404.82;16899.536;  502.588;40438.695; 0.38660
 405.41;17145.347;  491.629;41140.816; 0.38754
 406.00;17445.901;  497.890;41752.976; 0.38636
 406.59;17628.147;  479.966;42383.807; 0.38804
 407.18;17866.452;  482.149;42943.385; 0.38784
 407.77;17983.776;  466.520;43500.038; 0.39034
 408.37;18249.057;  484.641;43973.019; 0.38882
 408.96;18517.228;  491.806;44465.898; 0.38731
 409.55;18811.954;  504.476;44970.283; 0.38540
 410.14;19063.835;  481.626;45459.452; 0.38390
 410.73;19324.860;  490.299;45905.805; 0.38225
 411.32;19530.139;  492.855;46441.730; 0.38267
 411.91;19828.337;  505.687;47060.216; 0.38190
 412.50;20007.112;  480.732;47624.639; 0.38280
 413.09;20213.915;  484.505;48110.411; 0.38273
 413.68;20330.115;  482.467;48573.257; 0.38435
 414.27;20441.109;  487.472;48936.919; 0.38527
 414.86;20661.507;  462.470;49236.309; 0.38286
 415.45;20806.636;  452.555;49687.411; 0.38362
 416.04;21041.651;  462.743;50083.734; 0.38224
 416.63;21242.195;  468.551;50542.275; 0.38210
 417.22;21416.943;  461.867;50754.683; 0.38022
 417.81;21495.084;  462.159;51068.477; 0.38131
 418.40;21516.624;  476.694;51393.675; 0.38382
 418.99;21658.821;  477.832;51737.830; 0.38383
 419.58;21796.745;  462.218;51969.382; 0.38278
 420.17;21974.099;  452.952;52248.392; 0.38143
 420.76;22024.556;  458.593;52499.836; 0.38258
 421.35;22165.488;  472.988;53005.769; 0.38412
 421.94;22153.224;  474.287;53203.501; 0.38601
 422.53;22222.371;  469.601;53402.299; 0.38621
 423.12;22264.249;  471.552;53493.823; 0.38615
 423.71;22391.310;  463.366;53670.857; 0.38497
 424.30;22351.321;  471.573;53819.883; 0.38708
 424.89;22266.455;  477.611;53888.037; 0.38939
 425.48;22193.806;  477.854;53974.356; 0.39155
 426.07;22179.182;  465.438;53940.695; 0.39142
 426.66;22184.681;  460.097;54040.507; 0.39205
 427.25;22152.295;  453.014;53995.096; 0.39225
 427.84;22163.930;  450.549;53912.043; 0.39131
 428.43;22131.999;  452.848;53711.442; 0.39035
 429.02;22077.447;  457.772;53797.552; 0.39220
 429.61;22003.694;  448.720;53826.107; 0.39381
 430.20;21835.044;  425.820;53758.443; 0.39639
 430.79;21681.846;  437.001;53531.580; 0.39780
 431.38;21534.156;  442.471;53315.543; 0.39912
 431.97;21433.734;  451.391;53001.434; 0.39872
 432.55;21318.310;  445.807;52690.011; 0.39846
 433.14;21241.378;  441.412;52704.411; 0.40013
 433.73;21056.384;  432.971;52655.054; 0.40349
 434.32;20856.954;  424.624;52606.263; 0.40720
 434.91;20598.095;  423.161;52233.737; 0.40961
 435.50;20477.566;  418.064;51971.869; 0.40994
 436.09;20257.020;  418.432;51687.970; 0.41235
 436.68;20073.371;  422.559;51624.303; 0.41590
 437.27;19896.210;  439.214;51661.122; 0.42038
 437.86;19735.669;  433.576;51508.561; 0.42260
 438.45;19619.097;  436.794;51330.326; 0.42376
 439.04;19515.741;  419.148;51043.637; 0.42340
 439.62;19317.764;  412.025;51000.963; 0.42746
 440.21;19059.529;  413.441;50885.373; 0.43246
 440.80;18880.359;  430.263;51024.538; 0.43810
 441.39;18799.971;  449.560;51081.161; 0.44078
 441.98;18679.118;  447.874;51020.625; 0.44310
 442.57;18552.747;  436.530;50797.219; 0.44402
 443.16;18392.462;  425.660;50702.578; 0.44690
 443.75;18239.815;  431.481;50788.909; 0.45144
 444.33;18070.290;  435.018;50969.383; 0.45720
 444.92;18008.254;  440.355;50892.685; 0.45816
 445.51;18076.922;  417.614;50850.986; 0.45574
 446.10;18001.844;  410.612;51056.876; 0.45925
 446.69;17865.194;  404.712;51275.545; 0.46441
 447.28;17676.717;  420.929;51457.726; 0.47095
 447.87;17485.381;  412.657;51329.383; 0.47456
 448.45;17452.425;  413.036;51412.748; 0.47611
 449.04;17248.332;  390.874;51445.980; 0.48125
 449.63;17190.320;  386.972;51646.289; 0.48438
 450.22;17080.169;  381.501;51835.467; 0.48874
 450.81;16978.254;  386.090;52100.884; 0.49371
 451.40;16843.844;  391.666;52058.120; 0.49699
 451.98;16667.814;  398.229;52052.065; 0.50173
 452.57;16608.556;  403.856;52211.469; 0.50475
 453.16;16491.776;  401.626;52273.023; 0.50837
 453.75;16372.801;  391.994;52359.708; 0.51213
 454.34;16263.791;  388.814;52215.013; 0.51384
 454.93;16145.158;  395.232;52494.699; 0.51955
 455.51;15977.688;  391.805;52615.216; 0.52513
 456.10;15855.264;  402.670;52907.445; 0.53120
 456.69;15707.538;  396.116;53041.712; 0.53635
 457.28;15736.363;  403.304;53288.203; 0.53770
 457.87;15593.169;  395.902;53216.666; 0.54104
 458.45;15483.893;  396.108;53304.691; 0.54490
 459.04;15328.938;  388.965;53401.373; 0.55003
 459.63;15313.059;  395.666;53676.141; 0.55288
 460.22;15307.724;  396.420;53639.128; 0.55274
 460.80;15197.401;  400.600;53692.823; 0.55650
 461.39;15068.799;  392.483;53895.895; 0.56176
 461.98;15013.047;  393.792;54364.115; 0.56723
 462.57;15020.574;  398.874;54782.941; 0.57047
 463.16;15069.592;  397.668;55197.607; 0.57229
 463.74;15080.530;  387.726;55673.212; 0.57551
 464.33;15043.086;  376.102;56213.777; 0.58059
 464.92;15056.699;  370.427;56547.398; 0.58265
 465.51;14999.018;  357.831;56911.710; 0.58689
 466.09;14993.561;  358.204;57352.888; 0.59043
 466.68;14919.470;  361.518;57898.436; 0.59685
 467.27;14934.674;  372.331;58292.638; 0.59960
 467.86;14907.437;  368.243;58560.733; 0.60233
 468.44;14985.631;  363.094;58919.922; 0.60255
 469.03;15024.864;  361.882;59322.152; 0.60434
 469.62;15128.437;  367.807;59788.037; 0.60483
 470.20;15103.421;  365.300;60231.337; 0.60874
 470.79;15134.946;  374.762;60677.863; 0.61125
 471.38;15137.252;  358.816;61146.166; 0.61418
 471.97;15150.156;  359.020;61564.389; 0.61679
 472.55;15204.452;  350.111;61933.679; 0.61761
 473.14;15213.048;  362.234;62406.602; 0.62095
 473.73;15157.006;  355.473;62971.535; 0.62638
 474.31;15179.277;  347.428;63489.444; 0.62912
 474.90;15168.760;  350.797;63899.238; 0.63232
 475.49;15257.096;  352.737;64160.914; 0.63156
 476.07;15184.158;  357.870;64473.326; 0.63593
 476.66;15267.354;  347.892;64752.829; 0.63517
 477.25;15244.885;  340.581;65000.332; 0.63732
 477.84;15288.418;  352.761;65155.193; 0.63737
 478.42;15175.178;  344.733;65155.945; 0.64050
 479.01;15228.235;  344.681;65156.001; 0.63894
 479.60;15112.418;  330.210;65156.511; 0.64201
 480.18;15144.182;  334.265;65158.257; 0.64118
 480.77;15037.752;  342.135;65159.480; 0.64450
 481.35;15036.644;  347.900;65159.373; 0.64467
 481.94;14957.124;  344.738;65159.188; 0.64695
 482.53;14882.867;  335.059;65159.923; 0.64894
 483.11;14899.994;  332.000;65160.709; 0.64837
 483.70;14903.682;  318.067;65161.719; 0.64794
 484.29;14926.971;  316.585;65163.324; 0.64723
 484.87;14794.536;  306.461;65164.542; 0.65095
 485.46;14691.597;  315.710;65164.272; 0.65427
 486.05;14572.229;  319.958;65162.920; 0.65798
 486.63;14452.893;  321.237;65162.258; 0.66166
 487.22;14373.551;  317.302;65162.909; 0.66401
 487.81;14350.360;  323.288;65164.368; 0.66488
 488.39;14345.134;  331.856;65164.474; 0.66525
 488.98;14206.052;  337.207;65163.733; 0.66971
 489.56;14045.791;  317.228;65164.794; 0.67427
 490.15;13932.718;  310.772;65166.371; 0.67771
 490.74;13833.480;  302.771;65167.454; 0.68069
 491.32;13655.488;  305.937;65168.774; 0.68653
 491.91;13461.122;  316.111;64974.057; 0.69186
 492.49;13287.375;  317.823;64712.314; 0.69592
 493.08;13186.518;  332.939;64167.133; 0.69603
 493.67;12990.268;  325.500;63724.219; 0.69948
 494.25;12845.570;  343.920;63105.848; 0.70073
 494.84;12594.149;  335.724;62474.087; 0.70493
 495.42;12483.488;  338.386;61959.759; 0.70533
 496.01;12306.050;  319.873;61399.648; 0.70722
 496.59;12205.854;  310.443;60754.114; 0.70597
 497.18;12011.556;  311.106;60078.479; 0.70826
 497.77;11798.393;  311.733;59331.632; 0.71080
 498.35;11659.232;  326.966;58841.796; 0.71295
 498.94;11478.314;  324.499;58030.218; 0.71380
 499.52;11381.956;  324.914;57567.186; 0.71408
 500.11;11236.718;  311.275;56906.600; 0.71434
 500.69;11171.028;  304.601;56449.246; 0.71322
 501.28;11119.158;  315.149;55764.708; 0.71031
 501.86;11099.256;  317.653;55155.772; 0.70640
 502.45;11039.871;  338.264;54632.693; 0.70531
 503.03;10890.163;  328.939;54106.656; 0.70689
 503.62;10749.914;  339.385;53665.090; 0.70946
 504.20;10659.797;  326.215;53123.968; 0.70836
 504.79;10645.987;  326.766;52666.148; 0.70518
 505.37;10647.365;  326.582;52358.543; 0.70256
 505.96;10634.247;  332.269;51859.105; 0.69911
 506.55;10701.657;  327.706;51491.158; 0.69302
 507.13;10738.258;  315.837;51254.709; 0.68908
 507.72;10850.621;  312.954;51138.387; 0.68334
 508.30;10950.519;  319.265;50944.634; 0.67778
 508.89;11053.035;  316.460;50626.145; 0.67079
 509.47;11186.286;  308.593;50383.056; 0.66308
 510.05;11312.102;  311.037;50305.214; 0.65748
 510.64;11460.087;  312.992;50205.541; 0.65087
 511.22;11554.360;  326.961;50242.492; 0.64796
 511.81;11648.384;  323.186;50282.527; 0.64457
 512.39;11849.135;  329.747;50266.280; 0.63699
 512.98;12035.308;  310.647;50213.110; 0.62902
 513.56;12255.502;  306.947;50200.284; 0.62073
 514.15;12414.405;  297.484;50225.841; 0.61495
 514.73;12663.235;  293.306;50310.339; 0.60675
 515.32;12852.940;  298.909;50412.714; 0.60117
 515.90;13138.035;  306.909;50529.464; 0.59263
 516.49;13330.515;  321.223;50576.262; 0.58693
 517.07;13562.734;  323.415;50501.804; 0.57865
 517.66;13646.223;  325.663;50468.951; 0.57569
 518.24;13807.047;  330.491;50581.443; 0.57157
 518.82;14042.718;  322.791;50433.118; 0.56258
 519.41;14360.187;  321.449;50483.238; 0.55304
 519.99;14711.913;  304.901;50520.942; 0.54227
 520.58;14959.159;  313.039;50964.514; 0.53887
 521.16;15236.158;  316.114;51139.212; 0.53229
 521.75;15532.428;  315.579;51354.849; 0.52558
 522.33;15898.762;  314.722;51552.832; 0.51691
 522.91;16205.071;  303.280;51724.449; 0.50970
 523.50;16490.716;  304.661;51708.091; 0.50185
 524.08;16826.154;  292.957;51816.521; 0.49365
 524.67;17212.468;  296.699;52029.160; 0.48547
 525.25;17540.949;  294.898;52244.306; 0.47889
 525.83;17746.988;  300.195;52281.679; 0.47413
 526.42;17962.302;  299.604;52255.985; 0.46858
 527.00;18209.303;  297.414;52315.968; 0.46302
 527.59;18479.404;  293.742;52194.390; 0.45544
 528.17;18802.812;  296.702;52169.461; 0.44762
 528.75;19084.802;  314.407;52237.781; 0.44189
 529.34;19375.225;  317.963;52410.206; 0.43671
 529.92;19693.381;  322.096;52599.701; 0.43116
 530.50;19907.440;  308.099;52577.086; 0.42600
 531.09;20170.277;  310.277;52580.588; 0.42028
 531.67;20304.419;  319.699;52493.409; 0.41675
 532.25;20626.637;  331.224;52474.618; 0.40980
 532.84;20795.449;  319.265;52286.406; 0.40448
 533.42;21019.834;  303.579;52069.121; 0.39773
 534.00;21197.990;  296.379;51800.283; 0.39166
 534.59;21402.395;  306.923;51692.027; 0.38665
 535.17;21553.336;  307.396;51484.292; 0.38180
 535.75;21726.079;  311.833;51399.345; 0.37761
 536.34;21945.044;  327.170;51106.314; 0.37087
 536.92;22052.406;  323.362;50970.357; 0.36751
 537.50;22145.755;  320.767;50555.361; 0.36205
 538.09;22221.339;  304.234;50224.272; 0.35749
 538.67;22319.754;  307.957;49849.711; 0.35232
 539.25;22318.274;  292.004;49517.578; 0.34925
 539.84;22412.811;  298.382;49195.084; 0.34460
 540.42;22544.168;  287.620;48747.408; 0.33792
 541.00;22647.370;  304.712;48328.615; 0.33232
 541.59;22782.225;  293.453;47996.146; 0.32658
 542.17;22774.400;  303.713;47681.974; 0.32396
 542.75;22921.190;  301.687;47449.085; 0.31897
 543.33;22939.197;  321.928;47035.436; 0.31500
 543.92;23069.886;  322.791;46647.473; 0.30889
 544.50;23181.753;  319.637;46212.001; 0.30262
 545.08;23282.831;  303.653;45900.067; 0.29760
 545.67;23295.625;  304.594;45544.519; 0.29396
 546.25;23297.704;  306.855;45243.598; 0.29105
 546.83;23348.666;  305.919;44881.223; 0.28656
 547.41;23430.407;  307.185;44485.963; 0.28117
 548.00;23556.191;  304.048;44073.416; 0.27471
 548.58;23625.462;  293.554;43651.340; 0.26912
 549.16;23787.094;  273.252;43462.973; 0.26406
 549.74;23851.128;  276.221;43125.006; 0.25949
 550.33;23813.158;  287.338;42789.017; 0.25686
 550.91;23808.280;  287.502;42328.145; 0.25222
 551.49;23887.849;  275.114;42084.067; 0.24812
 552.07;24020.127;  281.527;41894.675; 0.24378
 552.66;24169.381;  296.715;41696.915; 0.23910
 553.24;24228.270;  301.874;41407.799; 0.23503
 553.82;24382.207;  287.046;41262.389; 0.23059
 554.40;24520.803;  287.502;41018.645; 0.22551
 554.98;24618.673;  286.839;40927.197; 0.22278
 555.57;24765.572;  295.511;40724.442; 0.21806
 556.15;24780.659;  295.794;40729.857; 0.21785
 556.73;24854.002;  289.872;40584.856; 0.21495
 557.31;24960.590;  280.087;40487.094; 0.21195
 557.89;25159.068;  267.680;40402.230; 0.20747
 558.48;25382.654;  270.725;40389.487; 0.20347
 559.06;25543.142;  269.279;40492.969; 0.20181
 559.64;25754.529;  288.172;40421.363; 0.19754
 560.22;25881.654;  308.276;40298.501; 0.19417
 560.80;26070.596;  311.749;40155.433; 0.18943
 561.39;26248.321;  300.174;40123.139; 0.18603
 561.97;26431.325;  304.256;40118.465; 0.18295
 562.55;26583.452;  305.864;40159.584; 0.18088
 563.13;26808.018;  307.652;40244.814; 0.17813
 563.71;27079.525;  295.320;40343.674; 0.17471
 564.29;27325.341;  296.315;40286.513; 0.17012
 564.88;27464.207;  280.495;40218.374; 0.16708
 565.46;27607.956;  277.260;40267.767; 0.16531
 566.04;27861.098;  269.464;40338.574; 0.16203
 566.62;28065.969;  292.162;40520.457; 0.16090
 567.20;28271.855;  292.265;40647.678; 0.15906
 567.78;28429.928;  300.170;40851.754; 0.15884
 568.36;28630.594;  300.837;41002.754; 0.15737
 568.94;28949.372;  296.460;41004.189; 0.15251
 569.53;29250.045;  295.816;41099.192; 0.14898
 570.11;29443.014;  283.902;41113.488; 0.14620
 570.69;29579.447;  278.869;41248.245; 0.14558
 571.27;29610.464;  279.854;41227.262; 0.14491
 571.85;29897.092;  279.584;41295.220; 0.14140
 572.43;30175.439;  299.078;41479.213; 0.13936
 573.01;30393.100;  288.199;41566.526; 0.13708
 573.59;30543.568;  284.931;41522.011; 0.13444
 574.17;30586.179;  270.419;41423.650; 0.13274
 574.76;30837.939;  278.826;41529.098; 0.13029
 575.34;30942.504;  274.920;41725.997; 0.13086
 575.92;31119.365;  271.771;41808.186; 0.12921
 576.50;31247.345;  265.398;41828.507; 0.12760
 577.08;31408.221;  261.206;41866.048; 0.12573
 577.66;31589.549;  250.776;41875.013; 0.12326
 578.24;31606.707;  252.747;41879.155; 0.12308
 578.82;31908.462;  257.942;41897.583; 0.11913
 579.40;32091.422;  266.978;41903.210; 0.11671
 579.98;32453.841;  273.567;41841.961; 0.11117
 580.56;32554.195;  281.852;41853.319; 0.10996
 581.14;32700.709;  291.659;41917.834; 0.10870
 581.72;32753.123;  280.280;42082.244; 0.10968
 582.30;32827.693;  273.151;42074.467; 0.10858
 582.88;32953.845;  274.650;42152.288; 0.10771
 583.46;33070.366;  282.363;42189.821; 0.10658
 584.04;33301.654;  282.956;42171.457; 0.10333
 584.62;33404.009;  265.125;42197.830; 0.10222
 585.21;33586.284;  267.265;42241.428; 0.10029
 585.79;33602.542;  273.754;42392.009; 0.10165
 586.37;33771.508;  277.118;42415.309; 0.09970
 586.95;33928.016;  275.522;42455.787; 0.09809
 587.53;34186.737;  269.979;42469.819; 0.09490
 588.11;34346.167;  278.442;42585.262; 0.09407
 588.69;34407.754;  282.733;42557.865; 0.09301
 589.27;34568.363;  283.424;42506.477; 0.09045
 589.85;34566.496;  276.026;42443.602; 0.08981
 590.43;34709.170;  271.715;42599.939; 0.08960
 591.01;34558.076;  278.076;42722.853; 0.09278
 591.59;34818.165;  288.299;42936.945; 0.09171
 592.16;34989.877;  287.924;42891.657; 0.08909
 592.74;35270.277;  291.617;42886.045; 0.08555
 593.32;35282.534;  293.193;42739.948; 0.08391
 593.90;35370.226;  297.895;42708.966; 0.08251
 594.48;35359.958;  288.777;42603.037; 0.08154
 595.06;35463.382;  285.245;42684.475; 0.08109
 595.64;35478.476;  272.769;42709.242; 0.08113
 596.22;35580.375;  276.890;42757.472; 0.08037
 596.80;35647.198;  268.138;42505.619; 0.07695
 597.38;35701.477;  264.245;42457.558; 0.07578
 597.96;35688.826;  262.869;42299.911; 0.07431
 598.54;35634.318;  268.057;42320.734; 0.07520
 599.12;35651.332;  272.769;42174.074; 0.07349
 599.70;35692.877;  272.156;42133.628; 0.07256
 600.28;35614.789;  269.178;41999.881; 0.07212
 600.86;35530.822;  273.568;41898.236; 0.07210
 601.44;35467.239;  279.130;41816.989; 0.07205
 602.02;35476.233;  273.135;41601.984; 0.06967
 602.59;35584.423;  269.019;41487.164; 0.06712
 603.17;35584.571;  254.435;41427.991; 0.06647
 603.75;35704.265;  264.600;41407.036; 0.06480
 604.33;35547.929;  268.544;41269.041; 0.06527
 604.91;35422.865;  272.574;41056.648; 0.06456
 605.49;35238.625;  271.546;40985.067; 0.06608
 606.07;35232.792;  254.900;40828.877; 0.06445
 606.65;35224.951;  260.422;40696.701; 0.06314
 607.23;35167.375;  264.441;40448.820; 0.06120
 607.80;35014.926;  277.156;40221.379; 0.06065
 608.38;34998.704;  277.256;40025.464; 0.05872
 608.96;34940.917;  285.786;39921.000; 0.05831
 609.54;34774.954;  288.246;39743.725; 0.05846
 610.12;34494.937;  283.928;39528.375; 0.05961
 610.70;34180.525;  273.259;39095.265; 0.05879
 611.28;33944.658;  259.195;38813.390; 0.05863
 611.85;33761.825;  265.841;38433.913; 0.05671
 612.43;33641.192;  260.695;38304.961; 0.05680
 613.01;33496.398;  263.202;38019.161; 0.05541
 613.59;33323.022;  249.299;37795.112; 0.05508
 614.17;33104.317;  240.914;37668.085; 0.05647
 614.75;32941.101;  222.778;37521.205; 0.05690
 615.32;32757.682;  209.277;37291.775; 0.05664
 615.90;32630.802;  219.080;36866.572; 0.05334
 616.48;32469.212;  232.952;36658.988; 0.05307
 617.06;32172.050;  255.157;36308.488; 0.05292
 617.64;31900.371;  246.140;36072.812; 0.05377
 618.22;31570.075;  241.049;35666.522; 0.05337
 618.79;31476.505;  228.178;35515.632; 0.05279
 619.37;31174.221;  227.104;35180.352; 0.05287
 619.95;30866.164;  231.387;34894.600; 0.05365
 620.53;30510.398;  218.869;34491.494; 0.05363
 621.11;30310.517;  206.529;34156.975; 0.05222
 621.68;30354.573;  201.116;33920.700; 0.04855
 622.26;30283.331;  202.843;33803.106; 0.04806
 622.84;30183.604;  212.594;33643.042; 0.04744
 623.42;29992.631;  214.208;33340.072; 0.04627
 623.99;29820.049;  232.130;33128.823; 0.04604
 624.57;29677.431;  239.695;32874.211; 0.04477
 625.15;29430.829;  249.244;32723.283; 0.04643
 625.73;29212.659;  235.066;32483.448; 0.04645
 626.30;29064.007;  228.444;32290.122; 0.04606
 626.88;28905.824;  228.031;32032.596; 0.04494
 627.46;28730.665;  230.061;31766.787; 0.04396
 628.04;28511.750;  242.419;31549.234; 0.04432
 628.61;28345.621;  241.899;31249.103; 0.04270
 629.19;28188.617;  244.829;31015.066; 0.04185
 629.77;27914.980;  231.831;30736.758; 0.04215
 630.35;27696.733;  234.217;30562.869; 0.04311
 630.92;27495.774;  232.092;30375.921; 0.04361
 631.50;27362.983;  220.757;30199.145; 0.04316
 632.08;27175.846;  206.521;29949.680; 0.04252
 632.66;26999.634;  196.801;29744.460; 0.04234
 633.23;26820.931;  216.776;29426.430; 0.04058
 633.81;26672.860;  225.566;29138.020; 0.03870
 634.39;26451.613;  220.298;28844.754; 0.03792
 634.96;26302.654;  221.956;28624.791; 0.03704
 635.54;26031.068;  216.680;28606.896; 0.04131
 636.12;25788.786;  214.735;28334.976; 0.04122
 636.69;25677.412;  204.526;28222.591; 0.04136
 637.27;25490.339;  199.403;27913.834; 0.03974
 637.85;25374.240;  217.219;27696.062; 0.03834
 638.42;24986.166;  206.286;27392.989; 0.04026
 639.00;24919.951;  223.367;27259.457; 0.03931
 639.58;24657.759;  209.789;26981.612; 0.03944
 640.15;24510.963;  222.891;26790.445; 0.03896
 640.73;24264.079;  204.119;26492.226; 0.03846
 641.31;24208.194;  216.013;26471.006; 0.03914
 641.88;24139.309;  210.908;26285.787; 0.03731
 642.46;23973.758;  226.803;26132.901; 0.03779
 643.04;23851.540;  214.697;25934.349; 0.03668
 643.61;23727.655;  223.925;25817.463; 0.03699
 644.19;23651.771;  209.153;25659.577; 0.03569
 644.77;23474.553;  224.048;25468.358; 0.03573
 645.34;23250.335;  211.943;25293.805; 0.03691
 645.92;23051.784;  214.504;25070.586; 0.03679
 646.49;22980.566;  218.399;24938.033; 0.03583
 647.07;22892.681;  220.293;24745.814; 0.03412
 647.65;22744.130;  224.188;24564.928; 0.03377
 648.22;22578.245;  218.082;24391.042; 0.03385
 648.80;22571.694;  227.310;24368.156; 0.03358
 649.37;22562.809;  227.872;24339.937; 0.03325
 649.95;22434.258;  227.433;24242.051; 0.03399
 650.53;22222.040;  209.328;24121.165; 0.03594
 651.10;22021.822;  214.222;24054.279; 0.03870
 651.68;21951.270;  211.450;24020.060; 0.03948
 652.25;21905.719;  221.012;23899.174; 0.03819
 652.83;21870.168;  211.573;23700.955; 0.03524
 653.41;21725.283;  208.468;23524.069; 0.03487
 653.98;21649.065;  212.362;23340.850; 0.03299
 654.56;21648.514;  211.590;23307.630; 0.03238
 655.13;21681.296;  208.818;23285.744; 0.03130
 655.71;21667.744;  207.379;23284.525; 0.03154
 656.28;21565.526;  194.941;23185.639; 0.03174
 656.86;21542.642;  188.169;22962.753; 0.02796
 657.43;21376.424;  190.397;22872.868; 0.02964
 658.01;21328.206;  212.958;22793.315; 0.02913
 658.58;21332.321;  207.519;22876.096; 0.03063
 659.16;21377.103;  211.747;22798.876; 0.02824
 659.74;21273.552;  196.309;22777.324; 0.02993
 660.31;21087.667;  204.203;22714.438; 0.03258
 660.89;21154.449;  198.098;22687.885; 0.03067
 661.46;21175.898;  206.659;22545.999; 0.02749
 662.04;21178.346;  208.554;22516.780; 0.02687
 662.61;21073.128;  207.448;22500.894; 0.02874
 663.19;21104.244;  206.676;22626.342; 0.03053
 663.76;21160.359;  209.571;22600.456; 0.02887
 664.34;21126.474;  211.132;22526.237; 0.02813
 664.91;21132.590;  214.027;22413.684; 0.02581
 665.49;21092.705;  216.922;22441.798; 0.02720
 666.06;21062.487;  213.150;22513.246; 0.02921
 666.64;21093.936;  212.044;22555.693; 0.02938
 667.21;21179.718;  216.606;22500.140; 0.02653
 667.79;21224.166;  204.167;22400.588; 0.02365
 668.36;21262.282;  201.395;22402.702; 0.02290
 668.93;21272.064;  202.290;22421.149; 0.02306
 669.51;21233.179;  198.184;22426.263; 0.02396
 670.08;21098.628;  192.412;22387.044; 0.02597
 670.66;20972.076;  189.307;22273.825; 0.02638
 671.23;20991.858;  213.201;22361.606; 0.02772
 671.81;21068.974;  219.763;22403.720; 0.02695
 672.38;21090.422;  224.324;22501.167; 0.02841
 672.96;21053.871;  213.552;22510.281; 0.02934
 673.53;21062.653;  213.113;22482.395; 0.02861
 674.10;21179.102;  213.008;22524.843; 0.02702
 674.68;21268.884;  228.236;22505.290; 0.02480
 675.25;21280.999;  221.131;22417.404; 0.02282
 675.83;21172.115;  215.692;22370.185; 0.02414
 676.40;21159.230;  203.253;22300.299; 0.02303
 676.98;21030.679;  209.148;22323.413; 0.02616
 677.55;21021.794;  210.043;22281.527; 0.02552
 678.12;21057.909;  223.937;22260.975; 0.02438
 678.70;21067.025;  221.832;22236.089; 0.02370
 679.27;21033.807;  229.060;22163.870; 0.02297
 679.85;20810.922;  216.621;22124.984; 0.02686
 680.42;20819.704;  216.516;22133.431; 0.02685
 680.99;20723.819;  192.744;22099.212; 0.02816
 681.57;20816.601;  198.305;22028.659; 0.02481
 682.14;20742.050;  205.866;21848.773; 0.02280
 682.71;20818.832;  210.761;21795.554; 0.02011
 683.29;20770.614;  200.656;21706.668; 0.01933
 683.86;20479.396;  185.884;21546.116; 0.02225
 684.43;20315.845;  198.112;21362.230; 0.02202
 685.01;20165.293;  197.006;21197.011; 0.02188
 685.58;20313.742;  206.234;21272.458; 0.02023
 686.16;20283.524;  206.462;21269.239; 0.02082
 686.73;20263.306;  215.023;21397.686; 0.02390
 687.30;20247.088;  207.585;21388.467; 0.02406
 687.88;20222.537;  217.479;21321.914; 0.02323
 688.45;20080.652;  210.707;21118.362; 0.02211
 689.02;19925.434;  213.602;21022.142; 0.02351
 689.60;19828.883;  190.497;20889.257; 0.02284
 690.17;19870.998;  199.391;20926.704; 0.02270
 690.74;19912.780;  189.619;20805.485; 0.01923
 691.31;19839.895;  204.181;20824.932; 0.02126
 691.89;19760.344;  191.742;20754.713; 0.02153
 692.46;19752.126;  212.637;20700.494; 0.02058
 693.03;19773.241;  229.198;20611.941; 0.01825
 693.61;19689.357;  234.759;20426.722; 0.01616
 694.18;19561.139;  237.320;20424.503; 0.01898
 694.75;19447.254;  206.882;20414.950; 0.02131
 695.32;19446.703;  208.110;20458.064; 0.02225
 695.90;19377.151;  203.004;20312.512; 0.02069
 696.47;19303.267;  203.899;20210.626; 0.02016
 697.04;19240.382;  214.460;20060.073; 0.01832
 697.62;19198.831;  213.355;20039.187; 0.01881
 698.19;19208.613;  229.250;19951.301; 0.01667
 698.76;19124.061;  211.144;19960.082; 0.01879
 699.33;19057.177;  210.706;19883.196; 0.01863
 699.91;18917.292;  196.600;19795.977; 0.01992
 700.48;18890.407;  206.162;19674.091; 0.01784
 701.05;18815.523;  208.056;19645.538; 0.01895
 701.62;18761.971;  232.951;19536.652; 0.01779
 702.20;18683.420;  235.179;19463.767; 0.01799
 702.77;18628.869;  232.073;19314.881; 0.01590
 703.34;18577.317;  217.301;19303.995; 0.01686
 703.91;18469.099;  214.196;19161.775; 0.01617
 704.48;18441.548;  220.091;19054.223; 0.01436
 705.06;18389.663;  212.652;18964.004; 0.01351
 705.63;18360.445;  221.213;18940.118; 0.01366
 706.20;18208.894;  214.441;18934.565; 0.01717
 706.77;18199.010;  221.336;18864.679; 0.01579
 707.34;18152.792;  215.564;18821.793; 0.01590
 707.92;18070.907;  205.792;18710.907; 0.01529
 708.49;17887.689;  193.353;18575.022; 0.01655
 709.06;17822.471;  193.248;18466.136; 0.01557
 709.63;17824.253;  194.476;18431.916; 0.01472
 710.20;17763.702;  191.037;18446.697; 0.01656
 710.77;17682.150;  187.932;18338.145; 0.01599
 711.35;17671.266;  185.826;18305.592; 0.01548
 711.92;17766.714;  205.721;18271.706; 0.01231
 712.49;17789.163;  207.616;18372.487; 0.01418
 713.06;17779.612;  215.844;18405.934; 0.01522
 713.63;17801.727;  209.405;18498.382; 0.01687
 714.20;17827.509;  212.300;18556.829; 0.01762
 714.78;17784.624;  209.528;18487.277; 0.01702
 715.35;17767.073;  205.756;18407.724; 0.01556
 715.92;17775.188;  207.317;18351.838; 0.01403
 716.49;17837.637;  222.545;18343.285; 0.01229
 717.06;17776.752;  226.106;18273.400; 0.01212
 717.63;17703.201;  217.334;18198.847; 0.01214
 718.20;17615.650;  210.895;18175.294; 0.01374
 718.77;17552.432;  224.790;18170.075; 0.01521
 719.35;17593.214;  226.351;18153.189; 0.01378
 719.92;17508.996;  211.913;18038.303; 0.01309
 720.49;17518.111;  197.474;17879.084; 0.00896
 721.06;17299.560;  177.369;17774.532; 0.01188
 721.63;17321.342;  190.930;17799.979; 0.01197
 722.20;17253.124;  195.825;17861.426; 0.01522
 722.77;17306.572;  203.386;17825.540; 0.01298
 723.34;17265.021;  196.947;17821.321; 0.01393
 723.91;17221.136;  205.509;17813.102; 0.01485
 724.48;17211.918;  222.070;17777.883; 0.01423
 725.05;17140.700;  212.964;17617.997; 0.01208
 725.62;17000.149;  195.192;17490.778; 0.01250
 726.20;16965.598;  186.754;17461.892; 0.01266
 726.77;17028.380;  192.982;17446.339; 0.01065
 727.34;17135.828;  199.210;17412.787; 0.00704
 727.91;17039.610;  209.104;17361.567; 0.00823
 728.48;16998.059;  214.999;17354.015; 0.00911
 729.05;16952.174;  215.560;17353.795; 0.01030
 729.62;16921.623;  192.788;17320.910; 0.01024
 730.19;16836.738;  185.683;17297.024; 0.01184
 730.76;16868.854;  188.578;17324.138; 0.01170
 731.33;16914.636;  211.472;17306.252; 0.01006
 731.90;16883.084;  215.034;17274.033; 0.01007
 732.47;16835.200;  206.261;17242.147; 0.01050
 733.04;16810.982;  191.156;17245.594; 0.01121
 733.61;16751.764;  168.051;17256.042; 0.01301
 734.18;16717.212;  173.945;17191.156; 0.01227
 734.75;16625.994;  184.507;17077.270; 0.01176
 735.32;16636.776;  211.401;16955.384; 0.00834
 735.89;16523.558;  203.963;16851.831; 0.00865
 736.46;16541.340;  212.191;16734.945; 0.00512
 737.03;16457.456;  203.085;16674.393; 0.00576
 737.60;16407.905;  203.647;16580.840; 0.00461
 738.17;16312.687;  173.208;16558.621; 0.00657
 738.74;16252.802;  184.103;16523.735; 0.00726
 739.31;16136.251;  185.331;16430.849; 0.00795
 739.88;16024.366;  195.225;16300.630; 0.00751
 740.45;15921.481;  176.120;16234.411; 0.00855
 741.02;15885.930;  174.348;16293.858; 0.01113
 741.59;15850.045;  171.909;16337.305; 0.01329
 742.15;15934.494;  177.804;16325.753; 0.01065
 742.72;16115.943;  185.365;16376.867; 0.00706
 743.29;16107.391;  187.593;16351.648; 0.00661
 743.86;16061.840;  195.154;16298.095; 0.00642
 744.43;15869.289;  197.049;16220.543; 0.00963
 745.00;15994.737;  201.277;16240.323; 0.00670
 745.57;15981.519;  209.172;16261.771; 0.00765
 746.14;15933.301;  201.733;16198.552; 0.00726
 746.71;15813.417;  208.294;16179.666; 0.01008
 747.28;15779.865;  196.522;16170.446; 0.01075
 747.85;15869.981;  172.417;16124.227; 0.00698
 748.42;15852.763;  173.645;16103.675; 0.00689
 748.98;15813.211;  177.206;16075.455; 0.00722
 749.55;15790.660;  197.767;16011.569; 0.00611
 750.12;15787.109;  197.662;16015.683; 0.00632
 750.69;15864.224;  204.890;15955.131; 0.00251
 751.26;15804.339;  216.118;15910.245; 0.00294
 751.83;15752.788;  206.013;15821.026; 0.00190
 752.40;15624.237;  204.907;15769.807; 0.00408
 752.97;15549.352;  192.802;15780.587; 0.00649
 753.53;15498.467;  195.697;15773.035; 0.00772
 754.10;15479.916;  187.925;15706.815; 0.00640
 754.67;15432.031;  185.486;15666.263; 0.00662
 755.24;15375.813;  192.714;15616.044; 0.00682
 755.81;15376.595;  200.608;15583.491; 0.00588
 756.38;15364.711;  223.503;15510.272; 0.00416
 756.94;15330.826;  215.064;15482.386; 0.00433
 757.51;15158.275;  204.292;15502.833; 0.00989
 758.08;15117.390;  196.520;15545.281; 0.01228
 758.65;15013.172;  213.748;15443.728; 0.01245
 759.22;14981.287;  220.643;15351.176; 0.01075
 759.79;14848.403;  205.538;15180.623; 0.00974
 760.35;14786.185;  191.432;15130.404; 0.01012
 760.92;14688.967;  201.994;14987.518; 0.00886
 761.49;14565.082;  208.555;14849.965; 0.00853
 762.06;14559.197;  211.783;14641.079; 0.00247
 762.63;14416.979;  201.011;14500.527; 0.00254
 763.19;14342.428;  203.239;14469.641; 0.00389
 763.76;14190.543;  215.133;14423.422; 0.00718
 764.33;14131.325;  219.695;14294.202; 0.00506
 764.90;13997.107;  218.589;14107.650; 0.00347
 765.46;13760.889;  197.817;13914.097; 0.00488
 766.03;13558.338;  196.045;13749.878; 0.00618
 766.60;13407.120;  197.940;13624.992; 0.00710
 767.17;13308.902;  205.501;13465.773; 0.00517
 767.73;13200.351;  207.063;13413.220; 0.00706
 768.30;13091.800;  206.624;13205.001; 0.00380
 768.87;12978.582;  215.185;13045.782; 0.00228
 769.44;12865.697;  213.413;12836.229;-0.00101
 770.00;12640.479;  215.975;12686.677; 0.00161
 770.57;12448.261;  216.536;12525.791; 0.00274
 771.14;12163.376;  213.430;12350.238; 0.00674
 771.71;11985.492;  198.325;12122.686; 0.00503
 772.27;11702.274;  206.220;11935.800; 0.00873
 772.84;11521.056;  209.448;11715.914; 0.00742
 773.41;11413.171;  213.676;11595.695; 0.00702
 773.97;11331.620;  205.904;11440.809; 0.00424
 774.54;11254.068;  213.798;11314.923; 0.00239
 775.11;11054.517;  232.360;11227.370; 0.00688
 775.67;10917.299;  228.588;11074.818; 0.00635
 776.24;10764.748;  222.482;10902.265; 0.00563
 776.81;10643.863;  220.377;10665.712; 0.00091
 777.38;10466.312;  208.272;10484.160; 0.00075
 777.94;10335.427;  214.166;10350.941; 0.00067
 778.51;10249.542;  199.728;10214.721;-0.00151
 779.08;10219.991;  210.622;10137.835;-0.00358
 779.64;10110.773;  201.517;10058.283;-0.00231
 780.21; 9944.888;  202.745; 9970.064; 0.00112
 780.78; 9826.337;  211.639; 9870.178; 0.00198
 781.34; 9718.786;  212.534; 9787.625; 0.00313
 781.91; 9656.568;  225.762; 9703.406; 0.00215
 782.47; 9572.016;  227.990; 9633.520; 0.00285
 783.04; 9513.132;  238.551; 9482.634;-0.00143
 783.61; 9428.580;  245.779; 9385.415;-0.00205
 784.17; 9298.696;  246.674; 9320.196; 0.00103
 784.74; 9222.478;  236.569; 9240.310; 0.00086
 785.31; 9143.593;  244.797; 9256.090; 0.00546
 785.87; 9091.042;  248.691; 9137.538; 0.00228
 786.44; 9050.824;  252.252; 9126.319; 0.00371
 787.00; 9060.606;  239.480; 9065.766; 0.00025
 787.57; 9011.721;  222.375; 9005.880;-0.00029
 788.14; 8952.836;  242.936; 8941.661;-0.00056
 788.70; 8886.618;  252.831; 8828.442;-0.00294
 789.27; 8934.067;  261.392; 8880.222;-0.00270
 789.83; 8872.516;  247.620; 8836.003;-0.00184
 790.40; 8774.298;  230.182; 8838.117; 0.00323
 790.96; 8694.080;  235.076; 8799.898; 0.00540
 791.53; 8648.195;  229.304; 8766.679; 0.00607
 792.10; 8668.644;  224.866; 8777.126; 0.00554
 792.66; 8643.426;  219.094; 8720.574; 0.00396
 793.23; 8628.541;  214.988; 8733.688; 0.00539
 793.79; 8558.990;  216.216; 8675.468; 0.00602
 794.36; 8524.105;  210.777; 8660.249; 0.00705
 794.92; 8540.887;  219.339; 8606.363; 0.00340
 795.49; 8554.336;  232.233; 8532.811;-0.00112
 796.05; 8518.784;  243.461; 8505.258;-0.00071
 796.62; 8476.233;  248.023; 8527.372; 0.00269
 797.19; 8423.682;  237.917; 8507.820; 0.00444
 797.75; 8367.464;  226.145; 8453.600; 0.00457
 798.32; 8336.912;  218.373; 8393.714; 0.00303
 798.88; 8339.028;  222.601; 8383.829; 0.00239
 799.45; 8421.810;  224.829; 8436.276; 0.00077
 800.01; 8542.925;  220.391; 8517.723;-0.00132
 800.58; 8813.041;  215.952; 8677.504;-0.00690
 801.14; 9091.156;  222.513; 8916.952;-0.00862
 801.71; 9306.271;  218.074; 9117.399;-0.00912
 802.27; 9467.053;  206.969; 9310.180;-0.00742
 802.84; 9638.502;  188.864; 9480.294;-0.00733
 803.40; 9956.951;  179.758; 9723.075;-0.01051
 803.96;10212.733;  198.986;10006.189;-0.00905
 804.53;10532.181;  210.548;10273.303;-0.01103
 805.09;10790.630;  208.442;10576.417;-0.00888
 805.66;11133.079;  200.670;10926.198;-0.00830
 806.22;11462.527;  172.898;11264.978;-0.00767
 806.79;11826.309;  185.793;11622.426;-0.00767
 807.35;12152.091;  182.354;11886.873;-0.00973
 807.92;12439.207;  214.582;12161.654;-0.00997
 808.48;12717.989;  221.810;12436.768;-0.00989
 809.05;13041.437;  217.705;12708.882;-0.01141
 809.61;13358.219;  213.933;13054.330;-0.01016
 810.17;13665.001;  218.827;13355.110;-0.01013
 810.74;13897.117;  231.055;13671.891;-0.00722
 811.30;14162.565;  226.617;13899.672;-0.00827
 811.87;14520.347;  214.511;14212.453;-0.00945
 812.43;14854.796;  214.406;14571.233;-0.00849
 812.99;15186.911;  216.967;14881.014;-0.00897
 813.56;15494.360;  221.862;15191.462;-0.00870
 814.12;15902.475;  221.090;15523.909;-0.01061
 814.69;16237.257;  216.318;15866.356;-0.01017
 815.25;16485.373;  210.213;16143.804;-0.00921
 815.81;16750.821;  200.774;16302.251;-0.01193
 816.38;17129.270;  196.335;16642.699;-0.01266
 816.94;17420.052;  193.897;16882.479;-0.01377
 817.51;17654.167;  192.791;17283.594;-0.00932
 818.07;17900.283;  201.019;17504.374;-0.00982
 818.63;18209.065;  202.247;17804.155;-0.00988
 819.20;18572.513;  201.808;18033.936;-0.01292
 819.76;18764.629;  209.370;18216.050;-0.01303
 820.32;18979.077;  216.598;18394.831;-0.01374
 820.89;19051.526;  218.159;18583.278;-0.01093
 821.45;19183.308;  193.387;18775.726;-0.00942
 822.01;19203.090;  176.615;18965.173;-0.00546
 822.58;19340.539;  180.843;19065.620;-0.00628
 823.14;19358.654;  194.404;19233.068;-0.00286
 823.70;19551.436;  202.299;19352.182;-0.00450
 824.27;19604.551;  193.194;19462.963;-0.00318
 824.83;19799.000;  215.421;19467.743;-0.00741
 825.39;19703.115;  215.649;19374.524;-0.00739
 825.95;19524.231;  221.211;19316.972;-0.00469
 826.52;19326.013;  191.105;19274.752;-0.00116
 827.08;19164.795;  189.000;19152.200;-0.00029
 827.64;19046.910;  175.895;18949.314;-0.00225
 828.21;18788.359;  175.123;18660.095;-0.00300
 828.77;18454.807;  181.351;18397.542;-0.00136
 829.33;18172.256;  183.579;18029.323;-0.00346
 829.89;17865.038;  181.807;17638.104;-0.00561
 830.46;17611.487;  185.701;17297.218;-0.00790
 831.02;17249.602;  190.596;16895.332;-0.00911
 831.58;16832.384;  201.157;16540.779;-0.00768
 832.15;16402.500;  185.052;16128.893;-0.00739
 832.71;15905.615;  188.280;15811.341;-0.00261
 833.27;15395.397;  178.841;15353.455;-0.00120
 833.83;14874.512;  169.736;14940.569; 0.00195
 834.39;14352.628;  164.297;14394.016; 0.00127
 834.96;13898.410;  162.192;13925.464; 0.00085
 835.52;13524.192;  187.086;13474.578;-0.00162
 836.08;13183.307;  188.981;13047.025;-0.00458
 836.64;12831.089;  194.876;12619.473;-0.00733
 837.21;12368.871;  198.770;12148.920;-0.00792
 837.77;11941.653;  198.332;11759.367;-0.00679
 838.33;11485.102;  206.893;11447.148;-0.00146
 838.89;11114.550;  203.121;11001.596;-0.00452
 839.45;10673.332;  205.349;10589.710;-0.00348
 840.02;10260.448;  209.910;10134.490;-0.00548
 840.58; 9872.896;  201.805; 9836.938;-0.00162
 841.14; 9519.345;  224.699; 9457.052;-0.00292
 841.70; 9108.127;  220.594; 9049.833;-0.00286
 842.26; 8692.909;  218.155; 8613.280;-0.00410
 842.82; 8312.358;  209.050; 8233.061;-0.00427
 843.39; 7919.806;  200.278; 7802.175;-0.00667
 843.95; 7484.588;  213.839; 7446.956;-0.00225
 844.51; 7067.704;  213.734; 7076.737; 0.00057
 845.07; 6790.152;  223.295; 6751.184;-0.00258
 845.63; 6551.934;  228.523; 6447.965;-0.00720
 846.19; 6371.716;  213.418; 6205.745;-0.01187
 846.75; 6118.832;  212.646; 6042.860;-0.00562
 847.32; 5916.947;  191.874; 5828.307;-0.00678
 847.88; 5695.062;  198.435; 5647.088;-0.00381
 848.44; 5499.511;  182.996; 5418.202;-0.00669
 849.00; 5335.626;  188.224; 5206.649;-0.01102
 849.56; 5184.408;  183.119; 5035.763;-0.01310
 850.12; 5116.190;  176.680; 4913.211;-0.01822
 850.68; 4987.972;  181.908; 4877.325;-0.01012
 851.24; 4905.088;  184.136; 4806.439;-0.00917
 851.80; 4827.203;  199.364; 4790.220;-0.00348
 852.37; 4856.985;  196.592; 4731.334;-0.01187
 852.93; 4818.100;  204.820; 4729.448;-0.00843
 853.49; 4817.882;  212.715; 4650.895;-0.01604
 854.05; 4748.331;  223.943; 4597.676;-0.01471
 854.61; 4768.113;  224.171; 4520.790;-0.02431
 855.17; 4714.562;  234.066; 4501.904;-0.02112
 855.73; 4700.010;  222.627; 4484.352;-0.02144
 856.29; 4653.459;  213.855; 4475.132;-0.01780
 856.85; 4647.241;  192.749; 4517.913;-0.01280
 857.41; 4707.690;  203.644; 4600.027;-0.01051
 857.97; 4755.472;  205.205; 4760.141; 0.00045
 858.53; 4924.920;  207.433; 4902.255;-0.00209
 859.09; 5085.036;  192.328; 5028.370;-0.00506
 859.65; 5384.151;  184.889; 5166.484;-0.01857
 860.21; 5643.933;  182.451; 5403.598;-0.01954
 860.77; 5919.382;  179.679; 5685.045;-0.01810
 861.33; 6248.164;  189.573; 6014.826;-0.01706
 861.89; 6564.279;  205.135; 6331.273;-0.01621
 862.45; 6944.395;  215.363; 6656.387;-0.01900
 863.01; 7231.510;  205.924; 6960.168;-0.01711
 863.57; 7584.625;  191.152; 7240.949;-0.02067
 864.13; 7914.407;  180.713; 7598.730;-0.01810
 864.69; 8291.856;  188.608; 7928.510;-0.01992
 865.25; 8651.305;  208.502; 8274.958;-0.01980
 865.81; 8982.420;  215.730; 8598.739;-0.01944
 866.37; 9341.202;  213.625; 8883.853;-0.02232
 866.93; 9639.317;  200.853; 9198.967;-0.02075
 867.49; 9949.433;  216.081; 9536.081;-0.01885
 868.05;10267.881;  210.642; 9849.195;-0.01847
 868.61;10575.663;  206.870;10116.309;-0.01968
 869.17;10938.445;  185.765;10306.090;-0.02632
 869.73;11276.227;  202.660;10652.537;-0.02518
 870.29;11666.676;  209.554;10985.985;-0.02660
 870.85;11877.125;  212.115;11316.099;-0.02141
 871.41;12096.907;  192.010;11700.213;-0.01472
 871.97;12413.022;  179.571;12032.994;-0.01371
 872.53;12849.471;  184.799;12414.108;-0.01519
 873.09;13380.919;  192.361;12748.222;-0.02135
 873.65;13818.035;  202.922;13125.336;-0.02268
 874.20;14277.817;  204.150;13530.783;-0.02369
 874.76;14551.817;  206.483;13844.450;-0.02196
 875.32;14899.483;  199.150;14344.450;-0.01672
 875.88;15241.817;  204.817;14722.117;-0.01528
 876.44;15664.150;  218.150;15059.450;-0.01734
 877.00;15962.483;  218.150;15358.117;-0.01700
 877.56;16292.817;  215.483;15696.450;-0.01642
 878.12;16560.150;  204.483;16104.450;-0.01227
 878.68;16892.150;  211.817;16344.450;-0.01450
 879.23;17160.150;  207.150;16637.783;-0.01359
 879.79;17515.150;  220.483;16875.783;-0.01636
 880.35;17747.483;  205.150;17127.117;-0.01564
 880.91;18051.150;  192.150;17367.783;-0.01694
 881.47;18198.483;  175.817;17611.783;-0.01437
 882.03;18534.483;  191.483;17929.783;-0.01456
 882.59;18773.817;  204.150;18199.450;-0.01365
 883.14;19054.150;  217.150;18423.117;-0.01480
 883.70;19118.150;  220.150;18492.117;-0.01463
 884.26;19231.817;  217.483;18606.117;-0.01453
 884.82;19290.483;  200.150;18627.783;-0.01534
 885.38;19364.150;  184.483;18693.783;-0.01545
 885.94;19365.817;  186.817;18692.783;-0.01551
 886.49;19389.817;  200.150;18759.783;-0.01450
 887.05;19388.483;  192.817;18819.450;-0.01307
 887.61;19306.483;  182.817;18766.450;-0.01244
 888.17;19124.483;  175.817;18655.450;-0.01089
 888.73;18931.483;  189.483;18492.450;-0.01029
 889.28;18785.483;  190.150;18251.117;-0.01266
 889.84;18604.817;  191.817;18020.450;-0.01401
 890.40;18479.150;  194.817;17792.450;-0.01662
 890.96;18276.150;  199.483;17628.450;-0.01585
 891.51;18161.150;  189.483;17470.117;-0.01703
 892.07;17917.483;  183.817;17244.117;-0.01681
 892.63;17741.817;  190.483;17036.783;-0.01781
 893.19;17578.817;  200.817;16880.117;-0.01782
 893.74;17441.150;  215.150;16772.783;-0.01719
 894.30;17240.817;  206.150;16671.450;-0.01476
 894.86;17087.150;  185.150;16510.450;-0.01508
 895.42;16968.150;  176.483;16397.450;-0.01502
 895.97;16981.483;  175.150;16362.450;-0.01630
 896.53;16932.483;  203.817;16299.450;-0.01675
 897.09;16966.817;  212.817;16258.117;-0.01877
 897.65;16822.483;  225.483;16079.783;-0.01988
 898.20;16717.817;  228.483;15994.117;-0.01949
 898.76;16573.817;  215.150;15888.117;-0.01860
 899.32;16431.483;  215.483;15824.450;-0.01657
 899.87;16286.483;  206.483;15765.117;-0.01431
 900.43;16184.483;  206.150;15631.783;-0.01529
 900.99;16147.483;  194.483;15508.450;-0.01775
 901.54;16035.483;  181.150;15319.450;-0.02007
 902.10;15788.817;  193.150;15133.117;-0.01865
 902.66;15503.483;  208.483;14918.117;-0.01695
 903.21;15307.150;  221.817;14754.117;-0.01622
 903.77;15150.817;  229.483;14588.450;-0.01668
 904.33;15021.483;  209.483;14443.783;-0.01728
 904.88;14832.150;  198.150;14329.783;-0.01517
 905.44;14740.817;  177.150;14293.450;-0.01355
 906.00;14704.817;  191.150;14324.117;-0.01154
 906.55;14714.150;  207.483;14294.117;-0.01276
 907.11;14576.150;  214.150;14239.117;-0.01031
 907.67;14423.483;  205.817;14016.117;-0.01263
 908.22;14233.817;  196.150;13855.783;-0.01186
 908.78;14159.150;  187.817;13715.783;-0.01401
 909.33;14089.150;  195.483;13616.783;-0.01502
 909.89;14028.817;  192.150;13488.783;-0.01729
 910.45;13886.483;  201.150;13406.783;-0.01550
 911.00;13756.817;  191.483;13362.117;-0.01282
 911.56;13616.817;  203.817;13272.117;-0.01131
 912.12;13445.150;  208.483;13101.117;-0.01144
 912.67;13299.150;  221.483;12951.117;-0.01171
 913.23;13197.150;  194.150;12807.450;-0.01321
 913.78;13141.483;  178.483;12651.783;-0.01672
 914.34;13083.483;  201.483;12642.117;-0.01514
 914.89;12979.150;  216.483;12543.117;-0.01510
 915.45;12934.817;  227.150;12558.117;-0.01307
 916.01;12833.150;  195.483;12386.117;-0.01564
 916.56;12687.817;  201.483;12282.450;-0.01433
 917.12;12528.150;  196.817;12063.117;-0.01669
 917.67;12421.150;  195.483;11981.117;-0.01592
 918.23;12346.483;  182.817;11944.450;-0.01460
 918.78;12262.483;  186.483;11927.117;-0.01223
 919.34;12079.817;  188.817;11843.783;-0.00871
 919.89;11972.483;  199.150;11694.117;-0.01039
 920.45;11808.817;  185.817;11531.783;-0.01048
 921.00;11754.817;  168.817;11330.783;-0.01619
 921.56;11572.150;  176.150;11296.783;-0.01062
 922.11;11464.817;  175.150;11154.450;-0.01211
 922.67;11283.150;  202.483;11048.450;-0.00930
 923.22;11196.150;  191.150;10815.450;-0.01529
 923.78;11088.483;  202.817;10632.117;-0.01860
 924.33;10931.817;  195.817;10497.117;-0.01795
 924.89;10729.483;  196.483;10361.117;-0.01546
 925.44;10524.817;  204.817;10248.117;-0.01180
 926.00;10366.817;  201.150;10018.783;-0.01513
 926.55;10280.150;  205.150; 9867.117;-0.01818
 927.11;10150.483;  188.150; 9720.450;-0.01916
 927.66;10115.817;  177.817; 9717.117;-0.01778
 928.22; 9997.483;  174.483; 9670.783;-0.01469
 928.77; 9982.483;  190.150; 9636.117;-0.01564
 929.33; 9869.150;  204.150; 9587.783;-0.01283
 929.88; 9843.150;  205.150; 9516.450;-0.01498
 930.43; 9747.150;  182.483; 9493.450;-0.01168
 930.99; 9748.817;  174.817; 9470.117;-0.01283
 931.54; 9697.817;  167.150; 9456.783;-0.01112
 932.10; 9785.150;  190.150; 9473.117;-0.01436
 932.65; 9836.150;  197.150; 9480.117;-0.01635
 933.21; 9911.483;  198.483; 9496.450;-0.01897
 933.76; 9870.817;  187.483; 9472.117;-0.01826
 934.31; 9853.817;  183.150; 9454.117;-0.01833
 934.87; 9847.483;  190.150; 9433.783;-0.01901
 935.42; 9900.483;  199.483; 9431.450;-0.02152
 935.98; 9852.817;  195.483; 9388.450;-0.02140
 936.53; 9833.817;  193.817; 9335.450;-0.02305
 937.08; 9765.817;  191.150; 9347.783;-0.01939
 937.64; 9761.483;  197.817; 9356.783;-0.01878
 938.19; 9692.150;  196.483; 9425.117;-0.01239
 938.74; 9684.483;  199.817; 9340.117;-0.01606
 939.30; 9664.817;  187.150; 9339.783;-0.01516
 939.85; 9664.150;  186.483; 9209.783;-0.02134
 940.40; 9655.150;  173.817; 9251.783;-0.01888
 940.96; 9622.483;  187.150; 9238.450;-0.01805
 941.51; 9577.150;  189.483; 9244.783;-0.01565
 942.06; 9456.150;  197.150; 9160.450;-0.01410
 942.62; 9365.150;  184.817; 9036.783;-0.01582
 943.17; 9288.817;  195.150; 8966.450;-0.01568
 943.72; 9276.483;  180.483; 8903.117;-0.01820
 944.28; 9259.817;  199.483; 8795.117;-0.02287
 944.83; 9223.150;  184.150; 8766.783;-0.02250
 945.38; 9139.483;  194.483; 8735.117;-0.02009
 945.94; 9087.483;  186.483; 8804.450;-0.01403
 946.49; 9045.483;  205.150; 8772.783;-0.01361
 947.04; 9009.150;  208.817; 8738.117;-0.01359
 947.60; 8889.483;  215.150; 8638.117;-0.01277
 948.15; 8815.483;  203.483; 8519.117;-0.01521
 948.70; 8699.483;  212.817; 8413.783;-0.01487
 949.25; 8639.817;  206.150; 8325.117;-0.01652
 949.81; 8559.817;  208.817; 8271.117;-0.01528
 950.36; 8440.817;  198.483; 8157.117;-0.01521
 950.91; 8297.817;  207.150; 8037.783;-0.01419
 951.46; 8104.483;  203.817; 7873.117;-0.01291
 952.02; 7973.150;  207.150; 7734.117;-0.01358
 952.57; 7884.483;  207.150; 7606.450;-0.01602
 953.12; 7782.150;  218.483; 7526.117;-0.01496
 953.67; 7726.817;  218.150; 7443.783;-0.01669
 954.23; 7590.150;  215.817; 7359.450;-0.01380
 954.78; 7473.817;  208.150; 7234.450;-0.01455
 955.33; 7321.483;  218.150; 7119.783;-0.01251
 955.88; 7148.150;  217.150; 6980.117;-0.01066
 956.44; 7061.817;  230.483; 6838.450;-0.01444
 956.99; 7000.150;  228.817; 6737.117;-0.01721
 957.54; 7013.483;  223.817; 6672.783;-0.02236
 958.09; 6959.483;  222.150; 6636.783;-0.02132
 958.64; 6904.817;  206.817; 6607.450;-0.01972
 959.20; 6848.817;  203.483; 6532.450;-0.02118
 959.75; 6799.817;  199.817; 6496.450;-0.02044
 960.30; 6738.483;  218.150; 6441.783;-0.02023
 960.85; 6722.817;  225.150; 6424.450;-0.02041
 961.40; 6739.483;  228.817; 6381.117;-0.02459
 961.95; 6776.150;  231.817; 6360.783;-0.02848
 962.51; 6719.150;  239.483; 6360.117;-0.02476
 963.06; 6685.817;  242.817; 6380.117;-0.02111
 963.61; 6619.150;  234.150; 6314.783;-0.02121
 964.16; 6622.150;  235.150; 6258.450;-0.02546
 964.71; 6599.150;  222.483; 6212.117;-0.02719
 965.26; 6641.483;  213.150; 6253.117;-0.02706
 965.81; 6690.817;  210.817; 6289.117;-0.02779
 966.36; 6724.150;  208.483; 6323.783;-0.02754
 966.92; 6654.817;  216.150; 6305.117;-0.02425
 967.47; 6628.483;  218.483; 6338.117;-0.02013
 968.02; 6645.150;  232.483; 6354.117;-0.02017
 968.57; 6734.483;  234.817; 6375.450;-0.02468
 969.12; 6731.150;  219.817; 6368.783;-0.02487
 969.67; 6749.817;  204.483; 6420.783;-0.02240
 970.22; 6745.483;  194.150; 6469.783;-0.01867
 970.77; 6853.150;  199.817; 6539.117;-0.02100
 971.32; 6941.150;  197.483; 6593.117;-0.02301
 971.87; 7051.483;  198.817; 6693.117;-0.02333
 972.42; 7132.817;  215.150; 6793.117;-0.02187
 972.98; 7223.150;  220.817; 6908.783;-0.01995
 973.53; 7319.483;  231.483; 6996.117;-0.02028
 974.08; 7398.817;  215.483; 7040.450;-0.02223
 974.63; 7450.150;  223.483; 7078.450;-0.02293
 975.18; 7473.483;  218.483; 7103.117;-0.02276
 975.73; 7580.817;  224.817; 7157.450;-0.02574
 976.28; 7600.150;  221.483; 7219.117;-0.02303
 976.83; 7656.483;  221.483; 7315.450;-0.02039
 977.38; 7656.150;  219.483; 7373.783;-0.01681
 977.93; 7631.150;  222.150; 7387.450;-0.01453
 978.48; 7644.150;  228.483; 7365.783;-0.01662
 979.03; 7657.817;  234.817; 7358.117;-0.01790
 979.58; 7716.817;  221.483; 7329.117;-0.02307
 980.13; 7738.817;  207.150; 7367.783;-0.02194
 980.68; 7633.483;  186.483; 7310.450;-0.01926
 981.23; 7619.150;  185.817; 7278.117;-0.02040
 981.78; 7597.150;  207.150; 7207.450;-0.02353
 982.33; 7610.817;  219.150; 7257.117;-0.02130
 982.88; 7541.150;  232.483; 7211.783;-0.02003
 983.43; 7409.150;  218.150; 7145.783;-0.01620
 983.98; 7280.483;  215.150; 6984.117;-0.01861
 984.53; 7216.150;  203.817; 6873.450;-0.02176
 985.08; 7195.817;  209.817; 6835.783;-0.02298
 985.63; 7182.483;  211.150; 6787.117;-0.02536
 986.18; 7145.817;  218.817; 6756.783;-0.02510
 986.73; 7045.483;  218.483; 6610.450;-0.02860
 987.27; 6977.150;  227.483; 6521.117;-0.03038
 987.82; 6829.150;  238.483; 6431.783;-0.02701
 988.37; 6753.150;  243.150; 6400.783;-0.02417
 988.92; 6612.817;  234.150; 6351.117;-0.01819
 989.47; 6611.817;  214.483; 6285.117;-0.02276
 990.02; 6513.483;  208.483; 6199.117;-0.02221
 990.57; 6473.483;  208.150; 6083.117;-0.02794
 991.12; 6326.817;  215.150; 6044.450;-0.02054
 991.67; 6278.150;  213.817; 5969.117;-0.02272
 992.22; 6190.483;  200.483; 5915.450;-0.02041
 992.77; 6113.483;  200.150; 5802.450;-0.02347
 993.31; 6014.150;  204.817; 5735.783;-0.02133
 993.86; 5922.150;  230.483; 5683.783;-0.01858
 994.41; 5791.817;  235.150; 5580.117;-0.01687
 994.96; 5678.483;  226.483; 5473.117;-0.01668
 995.51; 5583.150;  218.817; 5377.783;-0.01695
 996.06; 5531.483;  208.483; 5293.783;-0.01984
 996.61; 5449.483;  222.483; 5201.783;-0.02108
 997.15; 5351.817;  236.150; 5083.450;-0.02340
 997.70; 5228.483;  241.150; 4965.117;-0.02356
 998.25; 5111.483;  247.483; 4873.450;-0.02179
 998.80; 4980.150;  248.483; 4740.117;-0.02261
 999.35; 4844.483;  249.483; 4623.450;-0.02141
 999.90; 4697.150;  236.150; 4455.117;-0.02423
1000.44; 4531.483;  224.483; 4340.450;-0.01970
1000.99; 4373.483;  232.483; 4190.783;-0.01960
1001.54; 4184.483;  237.150; 4067.450;-0.01307
1002.09; 4028.817;  231.817; 3939.117;-0.01038
1002.64; 3950.483;  238.483; 3855.450;-0.01126
1003.18; 3895.483;  240.483; 3766.783;-0.01557
1003.73; 3822.483;  238.483; 3661.450;-0.01997
1004.28; 3744.817;  226.817; 3584.450;-0.02026
1004.83; 3648.483;  209.483; 3488.117;-0.02074
1005.38; 3563.150;  210.150; 3420.783;-0.01884
1005.92; 3488.817;  219.150; 3321.783;-0.02277
1006.47; 3440.150;  236.817; 3231.783;-0.02921
1007.02; 3376.817;  235.483; 3140.117;-0.03402
1007.57; 3284.150;  222.817; 3087.450;-0.02884
1008.11; 3187.483;  211.817; 3028.450;-0.02385
1008.66; 3125.483;  205.150; 2973.450;-0.02322
1009.21; 3045.817;  192.483; 2907.783;-0.02153
1009.75; 2981.483;  177.817; 2862.117;-0.01890
1010.30; 2909.817;  170.150; 2793.117;-0.01890
1010.85; 2818.817;  176.817; 2712.783;-0.01779
1011.40; 2735.817;  204.150; 2628.450;-0.01882
1011.94; 2654.150;  221.817; 2545.783;-0.01979
1012.49; 2584.483;  216.483; 2464.450;-0.02259
1013.04; 2496.817;  194.150; 2362.117;-0.02618
1013.58; 2411.150;  184.150; 2325.117;-0.01711
1014.13; 2363.150;  188.483; 2268.117;-0.01941
1014.68; 2312.817;  196.483; 2233.450;-0.01660
1015.23; 2276.817;  203.150; 2181.450;-0.02045
1015.77; 2221.483;  199.817; 2113.117;-0.02393
1016.32; 2158.817;  204.817; 2072.450;-0.01963
1016.87; 2114.150;  209.483; 2012.783;-0.02375
1017.41; 2039.817;  206.817; 1977.450;-0.01503
1017.96; 2023.817;  194.817; 1953.450;-0.01704
1018.50; 1959.483;  186.483; 1926.450;-0.00817
1019.05; 1948.150;  188.483; 1903.450;-0.01117
1019.60; 1877.150;  182.817; 1815.783;-0.01602
1020.14; 1845.150;  196.150; 1752.783;-0.02503
1020.69; 1795.817;  196.150; 1698.117;-0.02737
1021.24; 1762.150;  209.483; 1650.450;-0.03242
1021.78; 1720.483;  188.483; 1620.450;-0.02933
1022.33; 1669.483;  190.150; 1592.450;-0.02323
1022.87; 1617.483;  182.817; 1587.783;-0.00908
1023.42; 1571.483;  198.150; 1567.117;-0.00138
1023.97; 1516.817;  200.150; 1516.117;-0.00023
1024.51; 1485.483;  212.150; 1465.117;-0.00700
1025.06; 1428.150;  200.483; 1401.117;-0.00967
1025.60; 1398.150;  198.817; 1340.783;-0.02129
1026.15; 1347.817;  181.150; 1307.783;-0.01516
1026.70; 1345.817;  185.483; 1284.783;-0.02347
1027.24; 1332.817;  195.483; 1279.783;-0.02074
1027.79; 1330.817;  200.483; 1270.450;-0.02384
1028.33; 1301.150;  197.483; 1252.450;-0.01960
1028.88; 1265.817;  188.817; 1215.450;-0.02080
1029.42; 1235.483;  208.150; 1198.450;-0.01594
1029.97; 1224.817;  197.817; 1156.450;-0.02992
1030.51; 1195.150;  190.150; 1127.117;-0.03044
1031.06; 1177.483;  182.817; 1088.783;-0.04057
1031.61; 1132.483;  192.483; 1063.117;-0.03329
1032.15; 1104.150;  210.150; 1050.450;-0.02690
1032.70; 1094.150;  202.817; 1024.117;-0.03554
1033.24; 1084.150;  206.483; 1018.117;-0.03397
1033.79; 1087.817;  200.817; 1020.450;-0.03430
1034.33; 1059.483;  199.817; 1016.450;-0.02230
1034.88; 1043.817;  201.817; 1008.783;-0.01846
1035.42; 1034.150;  202.817;  979.450;-0.02956
1035.97; 1027.817;  204.483;  950.450;-0.04286
1036.51; 1035.150;  206.483;  931.450;-0.05806
1037.06; 1018.483;  200.817;  944.117;-0.04141
1037.60; 1012.483;  207.150;  948.783;-0.03579
1038.14;  975.483;  204.150;  928.783;-0.02712
1038.69;  957.483;  222.150;  927.783;-0.01791
1039.23;  959.150;  234.483;  935.783;-0.01423
1039.78;  962.817;  235.150;  948.783;-0.00846
1040.32;  957.150;  224.483;  915.783;-0.02524
1040.87;  918.150;  208.483;  887.117;-0.01942
1041.41;  920.483;  198.150;  864.117;-0.03529
1041.96;  918.817;  200.817;  882.783;-0.02236
1042.50;  913.817;  197.817;  893.117;-0.01274
1043.04;  911.150;  213.817;  899.117;-0.00756
1043.59;  910.150;  217.150;  867.450;-0.02762
1044.13;  901.483;  212.483;  869.450;-0.02068
1044.68;  887.150;  205.817;  862.117;-0.01626
1045.22;  879.483;  199.150;  873.783;-0.00365
1045.76;  884.150;  201.817;  869.450;-0.00946
1046.31;  859.150;  193.483;  861.783; 0.00171
1046.85;  855.483;  200.483;  842.117;-0.00895
1047.40;  852.150;  202.483;  813.783;-0.02644
1047.94;  857.483;  215.150;  808.783;-0.03424
1048.48;  855.817;  211.150;  810.117;-0.03193
1049.03;  848.150;  214.483;  793.450;-0.03921
1049.57;  857.150;  229.150;  787.117;-0.05135
1050.11;  839.483;  222.817;  774.117;-0.04866
1050.66;  835.483;  218.483;  779.117;-0.04161
1051.20;  824.483;  206.483;  794.450;-0.02164
1051.74;  800.483;  200.817;  788.117;-0.00905
1052.29;  790.150;  200.150;  780.783;-0.00695
1052.83;  772.817;  199.150;  748.117;-0.01911
1053.37;  788.150;  224.817;  744.783;-0.03479
1053.92;  790.150;  234.150;  739.783;-0.04124
1054.46;  771.483;  236.483;  734.117;-0.03144
1055.00;  771.817;  231.483;  739.117;-0.02711
1055.55;  759.817;  230.817;  738.117;-0.01819
1056.09;  766.817;  223.817;  747.783;-0.01550
1056.63;  742.483;  215.817;  711.783;-0.02608
1057.17;  740.483;  216.483;  709.117;-0.02681
1057.72;  744.483;  225.150;  697.450;-0.04123
1058.26;  746.483;  223.483;  705.783;-0.03518
1058.80;  736.483;  229.817;  700.450;-0.03204
1059.35;  723.150;  230.483;  686.450;-0.03362
1059.89;  722.817;  230.150;  672.450;-0.04684
1060.43;  704.150;  227.817;  654.783;-0.04752
1060.97;  673.817;  223.817;  667.117;-0.00651
1061.52;  664.817;  231.150;  682.450; 0.01731
1062.06;  666.817;  231.483;  671.450; 0.00460
1062.60;  667.150;  236.483;  658.450;-0.00886
1063.14;  655.817;  232.483;  640.783;-0.01570
1063.69;  633.483;  216.483;  640.117; 0.00685
1064.23;  631.150;  208.817;  619.783;-0.01185
1064.77;  618.150;  200.483;  598.450;-0.02098
1065.31;  613.483;  201.817;  577.450;-0.03978
1065.85;  617.817;  206.483;  567.117;-0.05713
1066.40;  615.150;  205.150;  579.450;-0.03956
1066.94;  616.817;  217.817;  579.117;-0.04310
1067.48;  594.817;  209.150;  587.783;-0.00799
1068.02;  601.150;  233.817;  562.450;-0.04835
1068.56;  597.150;  216.817;  564.783;-0.03863
1069.10;  580.483;  212.817;  549.783;-0.03787
1069.65;  580.817;  195.817;  566.450;-0.01652
1070.19;  585.817;  208.817;  566.783;-0.02250
1070.73;  611.150;  223.817;  582.783;-0.03303
1071.27;  589.817;  215.817;  567.117;-0.02719
1071.81;  568.150;  207.150;  562.117;-0.00732
1072.35;  563.483;  201.817;  549.117;-0.01760
1072.90;  557.150;  197.150;  546.783;-0.01269
1073.44;  561.150;  202.817;  540.117;-0.02627
1073.98;  556.483;  206.150;  531.450;-0.03220
1074.52;  559.817;  224.483;  538.783;-0.02813
1075.06;  546.817;  218.483;  542.450;-0.00581
1075.60;  544.483;  207.483;  531.450;-0.01713
1076.14;  545.150;  204.817;  514.117;-0.04152
1076.68;  545.483;  207.150;  504.450;-0.05615
1077.22;  539.817;  225.817;  504.783;-0.05138
1077.76;  512.483;  214.817;  498.117;-0.02148
1078.31;  506.150;  229.817;  499.783;-0.01012
1078.85;  501.817;  226.483;  517.117; 0.02349
1079.39;  514.817;  243.817;  525.450; 0.01671
1079.93;  530.483;  237.817;  507.783;-0.03506
1080.47;  527.483;  227.483;  476.450;-0.08098
1081.01;  527.483;  216.150;  474.783;-0.08054
1081.55;  524.817;  208.483;  488.783;-0.05252
1082.09;  511.817;  205.817;  488.783;-0.03399
1082.63;  513.817;  210.150;  496.450;-0.02558
1083.17;  503.483;  221.150;  500.783;-0.00417
1083.71;  501.483;  228.817;  501.450;-0.00005
1084.25;  491.483;  224.483;  471.117;-0.03446
1084.79;  486.483;  214.483;  446.450;-0.06914
1085.33;  481.483;  202.817;  450.783;-0.05069
1085.87;  473.483;  199.483;  468.450;-0.00805
1086.41;  483.150;  214.483;  471.450;-0.01934
1086.95;  476.150;  222.150;  467.117;-0.01573
1087.49;  489.150;  225.817;  454.783;-0.06073
1088.03;  485.150;  216.817;  454.117;-0.05338
1088.57;  500.483;  219.817;  450.783;-0.08464
1089.11;  488.483;  222.150;  448.117;-0.07138
1089.65;  492.483;  233.150;  458.783;-0.06046
1090.19;  479.817;  238.483;  468.117;-0.02158
1090.73;  479.150;  240.483;  471.783;-0.01362
1091.27;  469.483;  238.817;  466.117;-0.00639
1091.81;  477.483;  238.483;  458.117;-0.03670
1092.35;  491.483;  247.483;  461.450;-0.05704
1092.89;  491.150;  232.150;  457.450;-0.06054
1093.43;  495.483;  223.817;  445.783;-0.08775
1093.97;  482.150;  210.150;  441.117;-0.07102
1094.51;  477.483;  208.483;  440.450;-0.06433
1095.04;  467.817;  218.483;  442.783;-0.04595
1095.58;  485.483;  238.817;  436.783;-0.09552
1096.12;  485.483;  242.817;  428.783;-0.11558
1096.66;  482.150;  239.817;  430.450;-0.10421
1097.20;  461.150;  235.817;  449.450;-0.02316
1097.74;  463.150;  246.817;  456.783;-0.01297
1098.28;  450.483;  235.817;  457.117; 0.01322
1098.82;  442.483;  230.483;  453.117; 0.02125
1099.36;  434.150;  228.150;  446.450; 0.02519
1099.89;  445.150;  230.150;  447.450; 0.00462

