
Integration time [ms]:   0.300
Averaging Nr. [scans]: 1
Smoothing Nr. [pixels]: 1
Data measured with spectrometer [name]: 1906252U1
Wave   ;Sample   ;Dark     ;Reference;Absorbance
[nm]   ;[counts] ;[counts] ;[counts] ;[A.U]

 161.30;  292.363;  271.207;  271.637; 0.00000
 161.90;  285.075;  265.524;  261.712; 0.00000
 162.51;  277.786;  259.038;  260.433;-1.12862
 163.11;  272.860;  265.693;  251.834; 0.00000
 163.71;  274.159;  276.696;  266.803; 0.00000
 164.31;  276.502;  294.270;  273.488; 0.00000
 164.91;  274.096;  288.393;  287.410; 0.00000
 165.52;  263.623;  277.299;  279.261; 5.00000
 166.12;  263.095;  271.979;  273.718; 5.00000
 166.72;  281.135;  272.971;  259.755; 0.00000
 167.32;  290.417;  271.656;  271.040; 0.00000
 167.93;  296.237;  261.266;  267.518;-0.74770
 168.53;  276.344;  254.112;  260.296;-0.55575
 169.13;  279.303;  264.427;  257.261; 0.00000
 169.73;  272.727;  271.677;  266.351; 0.00000
 170.33;  292.882;  291.614;  320.561; 1.35844
 170.94;  309.294;  317.756;  347.746; 5.00000
 171.54;  335.051;  335.278;  387.239; 5.00000
 172.14;  356.011;  338.926;  375.538; 0.33101
 172.74;  348.328;  324.358;  373.181; 0.30894
 173.34;  342.712;  319.589;  355.569; 0.19202
 173.95;  341.401;  309.596;  343.923; 0.03313
 174.55;  343.040;  318.289;  355.228; 0.17389
 175.15;  337.633;  320.689;  367.155; 0.43812
 175.75;  314.679;  322.370;  380.195; 5.00000
 176.35;  333.508;  332.415;  382.036; 1.65708
 176.95;  343.697;  327.740;  392.907; 0.61106
 177.56;  358.143;  327.608;  398.355; 0.36491
 178.16;  341.094;  316.738;  399.298; 0.53016
 178.76;  336.293;  316.306;  398.487; 0.61402
 179.36;  346.492;  310.874;  401.343; 0.40483
 179.96;  356.635;  304.800;  395.813; 0.24448
 180.56;  363.453;  308.938;  392.969; 0.18792
 181.17;  362.254;  318.009;  403.448; 0.28580
 181.77;  366.648;  318.897;  417.181; 0.31350
 182.37;  364.247;  306.653;  404.111; 0.22844
 182.97;  380.925;  319.309;  413.789; 0.18564
 183.57;  395.751;  323.525;  427.944; 0.16009
 184.17;  429.582;  336.736;  473.104; 0.16695
 184.78;  434.402;  316.624;  484.587; 0.15415
 185.38;  438.644;  315.012;  504.833; 0.18621
 185.98;  441.773;  315.783;  504.638; 0.17579
 186.58;  447.913;  316.598;  510.449; 0.16915
 187.18;  459.472;  313.002;  491.678; 0.08632
 187.78;  483.528;  324.256;  526.070; 0.10281
 188.38;  495.285;  331.840;  541.159; 0.10744
 188.98;  504.658;  337.804;  574.199; 0.15130
 189.59;  501.332;  332.575;  567.529; 0.14372
 190.19;  499.193;  326.870;  580.708; 0.16821
 190.79;  502.752;  326.914;  573.939; 0.14763
 191.39;  494.089;  317.159;  564.285; 0.14512
 191.99;  494.509;  322.498;  545.363; 0.11248
 192.59;  477.414;  317.307;  539.929; 0.14316
 193.19;  458.186;  313.765;  525.712; 0.16660
 193.79;  449.750;  325.164;  530.280; 0.21653
 194.39;  444.809;  328.250;  517.658; 0.21085
 195.00;  433.303;  327.216;  511.139; 0.23897
 195.60;  426.556;  305.566;  480.732; 0.16070
 196.20;  402.623;  304.088;  469.473; 0.22491
 196.80;  402.476;  305.278;  453.989; 0.18468
 197.40;  383.001;  313.686;  455.186; 0.30993
 198.00;  377.932;  320.693;  452.457; 0.36210
 198.60;  365.091;  317.270;  442.943; 0.41962
 199.20;  353.669;  312.435;  427.513; 0.44574
 199.80;  359.919;  303.957;  416.753; 0.30440
 200.40;  359.032;  299.492;  396.868; 0.21364
 201.00;  354.589;  293.841;  371.434; 0.10629
 201.60;  341.222;  292.845;  340.403;-0.00741
 202.21;  343.724;  298.995;  352.240; 0.07569
 202.81;  353.042;  303.760;  367.883; 0.11433
 203.41;  356.422;  301.801;  377.921; 0.14414
 204.01;  344.111;  296.447;  373.611; 0.20922
 204.61;  339.637;  287.965;  374.799; 0.22543
 205.21;  342.842;  280.528;  391.328; 0.24995
 205.81;  347.419;  276.000;  394.567; 0.22015
 206.41;  330.515;  281.190;  389.667; 0.34227
 207.01;  324.688;  291.585;  373.516; 0.39358
 207.61;  309.721;  290.832;  349.221; 0.49012
 208.21;  317.925;  294.007;  340.088; 0.28478
 208.81;  306.553;  285.376;  350.048; 0.48487
 209.41;  311.448;  292.971;  355.294; 0.52801
 210.01;  314.311;  286.985;  361.835; 0.43762
 210.61;  336.803;  290.534;  351.990; 0.12328
 211.21;  333.375;  293.399;  356.219; 0.19630
 211.81;  330.761;  300.157;  352.258; 0.23106
 212.41;  303.682;  301.896;  344.513; 1.37768
 213.01;  305.449;  296.332;  351.625; 0.78283
 213.61;  297.493;  285.263;  357.339; 0.77034
 214.21;  302.241;  282.939;  368.411; 0.64624
 214.81;  296.558;  278.704;  361.387; 0.66568
 215.41;  312.152;  282.466;  362.645; 0.43151
 216.01;  311.027;  278.247;  362.189; 0.40836
 216.61;  315.625;  287.920;  357.792; 0.40175
 217.21;  299.884;  290.599;  357.391; 0.85694
 217.81;  307.630;  297.221;  367.800; 0.83125
 218.41;  312.247;  301.628;  379.081; 0.86299
 219.01;  320.997;  307.801;  388.505; 0.78647
 219.61;  313.065;  301.739;  384.906; 0.86589
 220.21;  302.343;  297.568;  378.507; 1.22917
 220.81;  309.220;  283.737;  372.713; 0.54303
 221.41;  323.197;  284.091;  376.024; 0.37123
 222.01;  332.892;  280.426;  372.049; 0.24213
 222.61;  325.953;  298.953;  367.451; 0.40431
 223.21;  321.256;  301.813;  357.103; 0.45390
 223.81;  313.833;  301.952;  360.676; 0.69396
 224.41;  311.463;  281.875;  343.618; 0.31947
 225.01;  311.103;  269.317;  340.250; 0.22982
 225.61;  306.209;  274.108;  341.033; 0.31907
 226.21;  288.749;  273.112;  349.918; 0.69124
 226.81;  285.670;  286.490;  349.175; 5.00000
 227.41;  306.444;  284.059;  344.282; 0.42980
 228.01;  326.744;  302.172;  351.241; 0.30037
 228.61;  327.989;  306.727;  360.474; 0.40273
 229.21;  327.882;  303.825;  362.700; 0.38869
 229.81;  336.299;  308.998;  372.791; 0.36860
 230.41;  347.237;  299.055;  383.396; 0.24316
 231.01;  340.445;  300.808;  405.942; 0.42364
 231.61;  334.597;  287.307;  401.095; 0.38133
 232.21;  331.667;  300.328;  383.489; 0.42384
 232.81;  337.448;  296.307;  370.928; 0.25859
 233.41;  332.516;  302.578;  372.995; 0.37146
 234.00;  332.763;  298.240;  379.918; 0.37400
 234.60;  323.462;  290.487;  363.623; 0.34594
 235.20;  329.767;  295.152;  359.264; 0.26767
 235.80;  317.603;  295.330;  365.432; 0.49794
 236.40;  316.220;  302.765;  379.044; 0.75351
 237.00;  312.660;  303.584;  384.824; 0.95187
 237.60;  315.811;  294.000;  377.651; 0.58380
 238.20;  320.043;  295.121;  389.214; 0.57698
 238.80;  307.174;  274.112;  389.668; 0.54346
 239.40;  317.256;  279.177;  403.402; 0.51353
 240.00;  310.493;  284.599;  402.640; 0.65883
 240.59;  323.818;  298.133;  401.312; 0.60390
 241.19;  323.914;  297.989;  399.745; 0.59385
 241.79;  331.219;  288.710;  384.715; 0.35381
 242.39;  324.418;  292.222;  383.909; 0.45452
 242.99;  321.959;  286.642;  375.121; 0.39885
 243.59;  315.257;  289.230;  388.763; 0.58254
 244.19;  319.727;  286.160;  385.560; 0.47148
 244.79;  328.831;  287.511;  384.652; 0.37125
 245.39;  338.068;  287.293;  395.554; 0.32882
 245.98;  329.633;  273.053;  391.453; 0.32069
 246.58;  311.462;  274.487;  389.290; 0.49204
 247.18;  323.862;  285.342;  384.364; 0.41004
 247.78;  346.265;  295.696;  398.758; 0.30921
 248.38;  351.006;  288.656;  421.162; 0.32740
 248.98;  337.483;  277.356;  419.988; 0.37514
 249.58;  324.167;  265.673;  430.671; 0.45037
 250.17;  327.016;  275.285;  426.842; 0.46682
 250.77;  330.807;  283.143;  431.967; 0.49448
 251.37;  324.918;  286.929;  425.089; 0.56072
 251.97;  342.310;  270.293;  429.805; 0.34536
 252.57;  340.063;  265.298;  436.882; 0.36078
 253.17;  348.344;  272.929;  449.172; 0.36866
 253.77;  344.124;  284.186;  466.282; 0.48260
 254.36;  349.295;  295.474;  468.774; 0.50785
 254.96;  338.753;  295.333;  480.567; 0.63003
 255.56;  325.154;  288.604;  484.301; 0.72870
 256.16;  327.370;  278.462;  506.509; 0.66865
 256.76;  333.635;  277.524;  496.109; 0.59057
 257.36;  333.133;  276.735;  508.603; 0.61398
 257.95;  328.580;  264.992;  503.713; 0.57452
 258.55;  326.946;  264.239;  518.084; 0.60725
 259.15;  333.320;  260.564;  510.454; 0.53588
 259.75;  334.862;  269.345;  523.998; 0.58959
 260.35;  338.157;  267.461;  538.318; 0.58334
 260.94;  329.917;  268.819;  539.764; 0.64685
 261.54;  328.929;  275.530;  547.771; 0.70742
 262.14;  346.265;  279.723;  553.422; 0.61418
 262.74;  363.691;  296.084;  592.169; 0.64143
 263.34;  365.120;  285.302;  604.600; 0.60209
 263.93;  348.059;  271.414;  619.201; 0.65683
 264.53;  347.307;  269.158;  628.783; 0.66293
 265.13;  350.413;  270.950;  628.566; 0.65325
 265.73;  348.984;  275.426;  648.466; 0.70512
 266.33;  353.257;  278.566;  678.397; 0.72861
 266.92;  345.207;  275.029;  689.673; 0.77147
 267.52;  344.591;  279.954;  705.726; 0.81870
 268.12;  341.798;  273.264;  717.281; 0.81149
 268.72;  339.016;  281.951;  749.175; 0.91315
 269.31;  346.344;  293.596;  782.505; 0.96702
 269.91;  344.531;  296.813;  783.686; 1.00873
 270.51;  360.940;  298.884;  823.747; 0.92726
 271.11;  356.885;  296.018;  844.685; 0.95493
 271.70;  351.878;  281.274;  877.686; 0.92672
 272.30;  345.102;  270.568;  887.924; 0.91818
 272.90;  350.261;  264.784;  909.412; 0.87746
 273.50;  355.714;  274.785;  916.521; 0.89925
 274.09;  359.724;  285.359;  947.539; 0.94960
 274.69;  354.197;  293.425;  961.690; 1.04124
 275.29;  353.554;  297.126; 1011.041; 1.10215
 275.89;  370.031;  301.162; 1057.168; 1.04050
 276.48;  382.576;  306.441; 1108.365; 1.02255
 277.08;  392.882;  303.217; 1149.330; 0.97480
 277.68;  386.141;  300.562; 1156.928; 1.00029
 278.28;  402.280;  297.934; 1188.748; 0.93131
 278.87;  410.410;  305.120; 1219.213; 0.93860
 279.47;  435.558;  316.402; 1279.019; 0.90734
 280.07;  441.745;  311.564; 1306.537; 0.88326
 280.66;  451.010;  305.599; 1329.806; 0.84779
 281.26;  436.479;  299.502; 1356.605; 0.88747
 281.86;  446.339;  299.353; 1408.460; 0.87770
 282.46;  442.542;  289.111; 1464.667; 0.88433
 283.05;  473.724;  270.001; 1525.842; 0.78989
 283.65;  483.464;  269.267; 1577.248; 0.78579
 284.25;  485.227;  276.537; 1628.707; 0.81153
 284.84;  502.327;  297.639; 1660.819; 0.82346
 285.44;  525.205;  304.585; 1722.349; 0.80796
 286.04;  578.827;  306.626; 1767.304; 0.72967
 286.63;  588.062;  299.604; 1827.551; 0.72403
 287.23;  592.430;  285.934; 1878.582; 0.71570
 287.83;  587.827;  285.987; 1956.635; 0.74311
 288.42;  587.993;  282.947; 2012.456; 0.75356
 289.02;  613.552;  281.018; 2081.351; 0.73352
 289.62;  628.554;  274.153; 2105.373; 0.71325
 290.21;  667.063;  278.965; 2173.882; 0.68865
 290.81;  707.692;  296.139; 2171.832; 0.65874
 291.41;  725.471;  301.675; 2217.279; 0.65515
 292.00;  711.782;  287.695; 2273.257; 0.67043
 292.60;  719.106;  266.816; 2355.570; 0.66447
 293.20;  759.817;  269.053; 2441.953; 0.64617
 293.79;  802.724;  275.331; 2498.541; 0.62485
 294.39;  817.304;  284.326; 2544.463; 0.62743
 294.99;  818.944;  280.435; 2588.095; 0.63198
 295.58;  866.155;  284.687; 2619.961; 0.60381
 296.18;  903.099;  271.100; 2672.236; 0.57970
 296.78;  945.387;  267.474; 2741.524; 0.56223
 297.37;  964.104;  256.039; 2819.912; 0.55882
 297.97;  977.302;  255.858; 2927.442; 0.56857
 298.57; 1039.748;  262.727; 2989.557; 0.54523
 299.16; 1084.299;  278.359; 3083.789; 0.54170
 299.76; 1133.542;  281.775; 3176.366; 0.53127
 300.35; 1135.216;  281.214; 3269.362; 0.54394
 300.95; 1158.311;  278.404; 3324.462; 0.53930
 301.55; 1214.016;  287.229; 3346.846; 0.51869
 302.14; 1244.529;  278.314; 3431.366; 0.51366
 302.74; 1301.359;  277.164; 3537.862; 0.50293
 303.33; 1312.744;  277.506; 3665.575; 0.51491
 303.93; 1365.449;  284.053; 3763.621; 0.50754
 304.53; 1386.901;  290.889; 3809.743; 0.50659
 305.12; 1446.569;  285.666; 3889.067; 0.49192
 305.72; 1506.586;  304.345; 3962.749; 0.48330
 306.31; 1561.326;  292.556; 4062.826; 0.47299
 306.91; 1604.738;  290.122; 4183.574; 0.47154
 307.51; 1638.902;  280.000; 4278.734; 0.46873
 308.10; 1663.886;  295.710; 4394.048; 0.47647
 308.70; 1680.906;  291.190; 4468.751; 0.47800
 309.29; 1710.632;  287.634; 4547.826; 0.47622
 309.89; 1757.826;  264.902; 4638.675; 0.46682
 310.48; 1830.592;  273.673; 4739.754; 0.45766
 311.08; 1912.620;  268.620; 4876.118; 0.44756
 311.68; 1971.205;  273.221; 4959.384; 0.44088
 312.27; 2040.104;  278.703; 5074.278; 0.43498
 312.87; 2070.015;  271.869; 5225.848; 0.44013
 313.46; 2121.512;  276.691; 5385.013; 0.44232
 314.06; 2164.055;  276.193; 5529.885; 0.44449
 314.65; 2212.734;  282.238; 5632.559; 0.44271
 315.25; 2266.435;  283.262; 5774.255; 0.44229
 315.85; 2312.057;  277.637; 5914.876; 0.44263
 316.44; 2377.452;  287.913; 6071.938; 0.44218
 317.04; 2433.838;  295.255; 6216.984; 0.44232
 317.63; 2506.187;  310.823; 6400.341; 0.44308
 318.23; 2585.461;  298.737; 6546.296; 0.43650
 318.82; 2670.389;  293.221; 6674.883; 0.42887
 319.42; 2740.390;  273.276; 6781.545; 0.42128
 320.01; 2803.478;  280.055; 6929.646; 0.42080
 320.61; 2867.831;  290.511; 7164.652; 0.42605
 321.20; 2939.806;  285.758; 7272.939; 0.42039
 321.80; 3034.239;  292.860; 7497.718; 0.41966
 322.39; 3114.037;  275.154; 7636.540; 0.41381
 322.99; 3179.714;  275.755; 7857.556; 0.41678
 323.58; 3255.039;  286.597; 7977.531; 0.41345
 324.18; 3314.527;  287.901; 8124.673; 0.41318
 324.77; 3366.192;  292.485; 8318.013; 0.41681
 325.37; 3410.011;  278.984; 8442.167; 0.41617
 325.96; 3491.476;  276.253; 8588.958; 0.41253
 326.56; 3591.278;  298.768; 8771.095; 0.41048
 327.15; 3648.288;  300.036; 8947.778; 0.41208
 327.75; 3719.711;  300.925; 9129.536; 0.41202
 328.34; 3777.690;  272.723; 9291.838; 0.41048
 328.94; 3883.099;  266.072; 9447.905; 0.40458
 329.53; 3952.404;  277.765; 9658.876; 0.40704
 330.13; 4093.312;  293.098; 9872.460; 0.40153
 330.72; 4124.071;  297.428;10112.576; 0.40908
 331.32; 4227.566;  296.807;10347.750; 0.40773
 331.91; 4228.880;  286.021;10578.045; 0.41669
 332.51; 4347.618;  290.846;10832.428; 0.41473
 333.10; 4416.878;  280.941;11112.686; 0.41812
 333.69; 4499.058;  268.720;11343.870; 0.41797
 334.29; 4543.822;  259.020;11372.294; 0.41391
 334.88; 4543.089;  263.526;11404.218; 0.41551
 335.48; 4618.043;  274.151;11347.513; 0.40640
 336.07; 4650.570;  277.361;11521.065; 0.41011
 336.67; 4713.612;  271.793;11561.792; 0.40513
 337.26; 4685.894;  270.478;11724.744; 0.41400
 337.86; 4754.575;  274.661;11795.073; 0.41020
 338.45; 4816.059;  285.081;11996.201; 0.41241
 339.04; 4905.573;  280.248;12122.714; 0.40830
 339.64; 4966.361;  279.247;12324.855; 0.40992
 340.23; 5038.067;  276.541;12444.594; 0.40747
 340.83; 5108.140;  283.446;12579.002; 0.40628
 341.42; 5150.593;  284.034;12728.085; 0.40774
 342.02; 5177.566;  280.810;12860.717; 0.40977
 342.61; 5227.656;  285.029;12994.842; 0.41018
 343.20; 5276.495;  280.703;13173.363; 0.41174
 343.80; 5340.328;  275.024;13326.514; 0.41105
 344.39; 5371.935;  277.525;13574.777; 0.41667
 344.99; 5444.076;  284.701;13698.586; 0.41496
 345.58; 5515.155;  281.629;13941.331; 0.41665
 346.17; 5604.772;  272.425;14086.941; 0.41342
 346.77; 5658.005;  263.601;14425.499; 0.41918
 347.36; 5740.249;  267.766;14640.403; 0.41935
 347.96; 5848.922;  271.456;14918.073; 0.41930
 348.55; 5941.254;  272.039;15018.413; 0.41516
 349.14; 6009.767;  269.152;15148.264; 0.41362
 349.74; 6082.147;  282.193;15379.635; 0.41548
 350.33; 6166.131;  292.264;15619.281; 0.41653
 350.92; 6249.598;  292.029;15990.758; 0.42080
 351.52; 6297.885;  276.988;16197.719; 0.42230
 352.11; 6402.201;  277.642;16449.038; 0.42167
 352.70; 6507.964;  293.221;16652.467; 0.42034
 353.30; 6647.191;  299.069;16923.354; 0.41810
 353.89; 6718.326;  289.556;17199.826; 0.42002
 354.49; 6806.952;  295.537;17471.125; 0.42124
 355.08; 6896.405;  303.789;17648.240; 0.42010
 355.67; 6964.043;  306.509;17850.877; 0.42082
 356.27; 7037.253;  292.678;18013.082; 0.41952
 356.86; 7118.553;  288.376;18230.048; 0.41943
 357.45; 7215.168;  297.756;18507.331; 0.42036
 358.05; 7272.458;  297.214;18684.613; 0.42096
 358.64; 7288.474;  292.504;18894.298; 0.42471
 359.23; 7365.333;  289.300;19081.825; 0.42420
 359.83; 7473.226;  289.121;19433.380; 0.42567
 360.42; 7592.773;  293.174;19722.600; 0.42516
 361.01; 7674.000;  287.355;19981.487; 0.42589
 361.61; 7738.054;  287.502;20183.522; 0.42658
 362.20; 7831.252;  294.987;20496.718; 0.42823
 362.79; 7866.154;  302.910;20634.303; 0.42946
 363.38; 7925.689;  301.613;20815.514; 0.42986
 363.98; 7981.233;  289.171;20943.715; 0.42897
 364.57; 8063.335;  277.744;21176.149; 0.42882
 365.16; 8108.004;  288.573;21351.502; 0.43034
 365.76; 8168.783;  293.720;21537.287; 0.43097
 366.35; 8259.384;  294.920;21731.542; 0.43000
 366.94; 8441.312;  286.459;21913.791; 0.42359
 367.53; 8425.318;  286.426;22067.466; 0.42751
 368.13; 8479.667;  291.994;22246.489; 0.42836
 368.72; 8446.801;  285.482;22413.295; 0.43318
 369.31; 8580.534;  292.281;22597.374; 0.42994
 369.91; 8583.363;  283.382;22746.877; 0.43240
 370.50; 8680.231;  291.699;22820.059; 0.42904
 371.09; 8694.098;  278.017;22946.909; 0.43032
 371.68; 8785.516;  286.967;23106.324; 0.42896
 372.28; 8855.103;  294.984;23340.584; 0.43011
 372.87; 8912.351;  297.367;23443.502; 0.42922
 373.46; 8962.449;  297.723;23614.255; 0.42991
 374.05; 8999.360;  287.889;23758.158; 0.43043
 374.65; 9115.697;  290.440;23950.173; 0.42828
 375.24; 9231.539;  272.918;24146.349; 0.42567
 375.83; 9261.555;  275.848;24331.370; 0.42766
 376.42; 9359.400;  273.516;24515.563; 0.42620
 377.02; 9365.338;  293.907;24527.502; 0.42674
 377.61; 9446.174;  288.112;24762.668; 0.42691
 378.20; 9485.300;  297.747;24944.118; 0.42855
 378.79; 9599.069;  297.015;25086.217; 0.42568
 379.38; 9681.635;  282.191;25204.109; 0.42348
 379.98; 9777.671;  267.243;25344.469; 0.42108
 380.57; 9865.266;  272.112;25606.751; 0.42175
 381.16; 9964.631;  291.609;25727.129; 0.41988
 381.75;10037.987;  289.589;25767.151; 0.41722
 382.35;10108.438;  283.703;25937.612; 0.41683
 382.94;10211.527;  271.231;26182.039; 0.41608
 383.53;10316.918;  279.541;26558.760; 0.41799
 384.12;10486.462;  269.432;26865.627; 0.41549
 384.71;10601.524;  284.069;27028.687; 0.41366
 385.31;10697.714;  287.699;27353.893; 0.41498
 385.90;10749.921;  299.731;27598.110; 0.41701
 386.49;10863.810;  283.306;27919.987; 0.41698
 387.08;11034.433;  296.763;28085.602; 0.41296
 387.67;11235.760;  302.047;28384.267; 0.40966
 388.26;11376.577;  312.463;28670.094; 0.40875
 388.86;11481.590;  297.866;29041.131; 0.40995
 389.45;11577.421;  285.685;29324.329; 0.41022
 390.04;11711.591;  279.860;29566.863; 0.40856
 390.63;11898.717;  284.795;29878.048; 0.40621
 391.22;12043.086;  294.422;30097.179; 0.40427
 391.81;12204.242;  303.408;30368.117; 0.40248
 392.41;12296.626;  324.211;30517.642; 0.40173
 393.00;12434.424;  349.022;30747.606; 0.40059
 393.59;12565.512;  379.676;31111.212; 0.40173
 394.18;12682.954;  399.780;31505.223; 0.40353
 394.77;12783.043;  433.703;31930.599; 0.40662
 395.36;12911.809;  473.557;32244.356; 0.40727
 395.95;13043.126;  524.323;32561.017; 0.40808
 396.55;13220.858;  566.236;32856.406; 0.40682
 397.14;13382.885;  594.577;33298.717; 0.40779
 397.73;13588.909;  601.786;33627.642; 0.40534
 398.32;13797.857;  612.294;34204.404; 0.40614
 398.91;14013.071;  621.039;34614.988; 0.40456
 399.50;14278.542;  632.059;35200.379; 0.40366
 400.09;14488.311;  605.452;35675.306; 0.40246
 400.68;14807.351;  582.293;36366.134; 0.40063
 401.27;15101.772;  548.561;37014.694; 0.39893
 401.87;15416.561;  525.771;37604.957; 0.39621
 402.46;15665.661;  501.053;38119.893; 0.39457
 403.05;15919.120;  484.389;38675.942; 0.39347
 403.64;16261.312;  490.521;39240.769; 0.39042
 404.23;16544.316;  484.797;39841.080; 0.38928
 404.82;16762.605;  502.588;40438.695; 0.39024
 405.41;16963.077;  491.629;41140.816; 0.39232
 406.00;17244.615;  497.890;41752.976; 0.39155
 406.59;17545.507;  479.966;42383.807; 0.39013
 407.18;17834.463;  482.149;42943.385; 0.38864
 407.77;18090.119;  466.520;43500.038; 0.38771
 408.37;18352.742;  484.641;43973.019; 0.38629
 408.96;18504.257;  491.806;44465.898; 0.38762
 409.55;18696.981;  504.476;44970.283; 0.38813
 410.14;18846.851;  481.626;45459.452; 0.38900
 410.73;19055.541;  490.299;45905.805; 0.38850
 411.32;19307.148;  492.855;46441.730; 0.38779
 411.91;19619.667;  505.687;47060.216; 0.38661
 412.50;19858.771;  480.732;47624.639; 0.38612
 413.09;20028.899;  484.505;48110.411; 0.38682
 413.68;20151.094;  482.467;48573.257; 0.38829
 414.27;20333.088;  487.472;48936.919; 0.38762
 414.86;20573.485;  462.470;49236.309; 0.38475
 415.45;20781.273;  452.555;49687.411; 0.38416
 416.04;21068.615;  462.743;50083.734; 0.38167
 416.63;21199.491;  468.551;50542.275; 0.38299
 417.22;21285.905;  461.867;50754.683; 0.38294
 417.81;21351.042;  462.159;51068.477; 0.38429
 418.40;21447.246;  476.694;51393.675; 0.38525
 418.99;21663.432;  477.832;51737.830; 0.38374
 419.58;21797.680;  462.218;51969.382; 0.38277
 420.17;21844.365;  452.952;52248.392; 0.38405
 420.76;21874.152;  458.593;52499.836; 0.38562
 421.35;21953.084;  472.988;53005.769; 0.38839
 421.94;22002.819;  474.287;53203.501; 0.38904
 422.53;22099.629;  469.601;53402.299; 0.38867
 423.12;22150.168;  471.552;53493.823; 0.38843
 423.71;22300.222;  463.366;53670.857; 0.38678
 424.30;22271.904;  471.573;53819.883; 0.38866
 424.89;22256.042;  477.611;53888.037; 0.38960
 425.48;22116.052;  477.854;53974.356; 0.39310
 426.07;22089.751;  465.438;53940.695; 0.39321
 426.66;22078.912;  460.097;54040.507; 0.39417
 427.25;22003.186;  453.014;53995.096; 0.39524
 427.84;21905.483;  450.549;53912.043; 0.39651
 428.43;21788.884;  452.848;53711.442; 0.39728
 429.02;21864.998;  457.772;53797.552; 0.39649
 429.61;21799.571;  448.720;53826.107; 0.39794
 430.20;21762.584;  425.820;53758.443; 0.39786
 430.79;21568.720;  437.001;53531.580; 0.40012
 431.38;21504.027;  442.471;53315.543; 0.39974
 431.97;21375.933;  451.391;53001.434; 0.39992
 432.55;21203.842;  445.807;52690.011; 0.40085
 433.14;21144.244;  441.412;52704.411; 0.40216
 433.73;20925.242;  432.971;52655.054; 0.40626
 434.32;20829.471;  424.624;52606.263; 0.40778
 434.91;20557.946;  423.161;52233.737; 0.41047
 435.50;20422.415;  418.064;51971.869; 0.41114
 436.09;20171.197;  418.432;51687.970; 0.41423
 436.68;19991.211;  422.559;51624.303; 0.41772
 437.27;19836.044;  439.214;51661.122; 0.42172
 437.86;19697.831;  433.576;51508.561; 0.42346
 438.45;19554.260;  436.794;51330.326; 0.42523
 439.04;19306.904;  419.148;51043.637; 0.42818
 439.62;19172.253;  412.025;51000.963; 0.43082
 440.21;18941.346;  413.441;50885.373; 0.43522
 440.80;18866.509;  430.263;51024.538; 0.43843
 441.39;18735.124;  449.560;51081.161; 0.44231
 441.98;18672.934;  447.874;51020.625; 0.44325
 442.57;18411.554;  436.530;50797.219; 0.44742
 443.16;18298.263;  425.660;50702.578; 0.44918
 443.75;18167.610;  431.481;50788.909; 0.45320
 444.33;18164.751;  435.018;50969.383; 0.45488
 444.92;17930.050;  440.355;50892.685; 0.46010
 445.51;17859.376;  417.614;50850.986; 0.46113
 446.10;17672.623;  410.612;51056.876; 0.46746
 446.69;17626.970;  404.712;51275.545; 0.47038
 447.28;17458.824;  420.929;51457.726; 0.47647
 447.87;17368.152;  412.657;51329.383; 0.47755
 448.45;17375.527;  413.036;51412.748; 0.47808
 449.04;17262.432;  390.874;51445.980; 0.48088
 449.63;17210.083;  386.972;51646.289; 0.48387
 450.22;17065.598;  381.501;51835.467; 0.48912
 450.81;16970.016;  386.090;52100.884; 0.49393
 451.40;16763.600;  391.666;52058.120; 0.49911
 451.98;16644.897;  398.229;52052.065; 0.50234
 452.57;16506.638;  403.856;52211.469; 0.50749
 453.16;16434.858;  401.626;52273.023; 0.50991
 453.75;16196.215;  391.994;52359.708; 0.51696
 454.34;16123.533;  388.814;52215.013; 0.51769
 454.93;16072.230;  395.232;52494.699; 0.52157
 455.51;16088.757;  391.805;52615.216; 0.52205
 456.10;16015.662;  402.670;52907.445; 0.52671
 456.69;15815.268;  396.116;53041.712; 0.53330
 457.28;15605.760;  403.304;53288.203; 0.54142
 457.87;15448.230;  395.902;53216.666; 0.54520
 458.45;15485.612;  396.108;53304.691; 0.54485
 459.04;15454.316;  388.965;53401.373; 0.54640
 459.63;15320.098;  395.666;53676.141; 0.55267
 460.22;15066.427;  396.420;53639.128; 0.55983
 460.80;14983.109;  400.600;53692.823; 0.56283
 461.39;14973.842;  392.483;53895.895; 0.56458
 461.98;15003.416;  393.792;54364.115; 0.56752
 462.57;14981.935;  398.874;54782.941; 0.57162
 463.16;14963.615;  397.668;55197.607; 0.57544
 463.74;14925.219;  387.726;55673.212; 0.58012
 464.33;14896.778;  376.102;56213.777; 0.58494
 464.92;14923.392;  370.427;56547.398; 0.58661
 465.51;14917.710;  357.831;56911.710; 0.58930
 466.09;14955.245;  358.204;57352.888; 0.59157
 466.68;14965.480;  361.518;57898.436; 0.59548
 467.27;15007.350;  372.331;58292.638; 0.59744
 467.86;15006.446;  368.243;58560.733; 0.59938
 468.44;14968.305;  363.094;58919.922; 0.60307
 469.03;15002.537;  361.882;59322.152; 0.60500
 469.62;14994.105;  367.807;59788.037; 0.60880
 470.20;15024.084;  365.300;60231.337; 0.61108
 470.79;14941.943;  374.762;60677.863; 0.61696
 471.38;15051.582;  358.816;61146.166; 0.61671
 471.97;15008.482;  359.020;61564.389; 0.62097
 472.55;15059.443;  350.111;61933.679; 0.62187
 473.14;15027.037;  362.234;62406.602; 0.62643
 473.73;15023.656;  355.473;62971.535; 0.63031
 474.31;15076.253;  347.428;63489.444; 0.63215
 474.90;14991.397;  350.797;63899.238; 0.63755
 475.49;15083.068;  352.737;64160.914; 0.63666
 476.07;15055.467;  357.870;64473.326; 0.63972
 476.66;15078.657;  347.892;64752.829; 0.64069
 477.25;15038.180;  340.581;65000.332; 0.64339
 477.84;15059.378;  352.761;65155.193; 0.64408
 478.42;15083.470;  344.733;65155.945; 0.64319
 479.01;15055.193;  344.681;65156.001; 0.64402
 479.60;15028.708;  330.210;65156.511; 0.64448
 480.18;14999.134;  334.265;65158.257; 0.64546
 480.77;14945.367;  342.135;65159.480; 0.64724
 481.35;14894.260;  347.900;65159.373; 0.64890
 481.94;14815.740;  344.738;65159.188; 0.65117
 482.53;14809.147;  335.059;65159.923; 0.65115
 483.11;14792.939;  332.000;65160.709; 0.65157
 483.70;14739.291;  318.067;65161.719; 0.65287
 484.29;14679.242;  316.585;65163.324; 0.65465
 484.87;14600.470;  306.461;65164.542; 0.65681
 485.46;14567.865;  315.710;65164.272; 0.65802
 486.05;14555.502;  319.958;65162.920; 0.65849
 486.63;14502.167;  321.237;65162.258; 0.66015
 487.22;14397.824;  317.302;65162.909; 0.66326
 487.81;14261.961;  323.288;65164.368; 0.66763
 488.39;14254.069;  331.856;65164.474; 0.66809
 488.98;14239.989;  337.207;65163.733; 0.66865
 489.56;14123.391;  317.228;65164.794; 0.67182
 490.15;13883.647;  310.772;65166.371; 0.67928
 490.74;13703.406;  302.771;65167.454; 0.68488
 491.32;13541.409;  305.937;65168.774; 0.69026
 491.91;13446.371;  316.111;64974.057; 0.69235
 492.49;13294.291;  317.823;64712.314; 0.69569
 493.08;13138.771;  332.939;64167.133; 0.69765
 493.67;12924.522;  325.500;63724.219; 0.70174
 494.25;12715.155;  343.920;63105.848; 0.70528
 494.84;12537.399;  335.724;62474.087; 0.70694
 495.42;12419.738;  338.386;61959.759; 0.70762
 496.01;12313.631;  319.873;61399.648; 0.70694
 496.59;12150.434;  310.443;60754.114; 0.70800
 497.18;12018.469;  311.106;60078.479; 0.70801
 497.77;11848.968;  311.733;59331.632; 0.70890
 498.35;11794.805;  326.966;58841.796; 0.70778
 498.94;11610.889;  324.499;58030.218; 0.70866
 499.52;11540.195;  324.914;57567.186; 0.70791
 500.11;11325.621;  311.275;56906.600; 0.71082
 500.69;11196.264;  304.601;56449.246; 0.71221
 501.28;11039.728;  315.149;55764.708; 0.71352
 501.86;11003.150;  317.653;55155.772; 0.71029
 502.45;10927.424;  338.264;54632.693; 0.70989
 503.03;10899.051;  328.939;54106.656; 0.70652
 503.62;10824.139;  339.385;53665.090; 0.70638
 504.20;10788.355;  326.215;53123.968; 0.70299
 504.79;10641.876;  326.766;52666.148; 0.70535
 505.37;10611.258;  326.582;52358.543; 0.70408
 505.96;10546.143;  332.269;51859.105; 0.70284
 506.55;10614.880;  327.706;51491.158; 0.69666
 507.13;10671.802;  315.837;51254.709; 0.69186
 507.72;10760.493;  312.954;51138.387; 0.68707
 508.30;10829.395;  319.265;50944.634; 0.68276
 508.89;10903.910;  316.460;50626.145; 0.67686
 509.47;11042.493;  308.593;50383.056; 0.66886
 510.05;11190.311;  311.037;50305.214; 0.66232
 510.64;11333.965;  312.992;50205.541; 0.65582
 511.22;11458.241;  326.961;50242.492; 0.65169
 511.81;11610.268;  323.186;50282.527; 0.64604
 512.39;11759.685;  329.747;50266.280; 0.64037
 512.98;11926.189;  310.647;50213.110; 0.63308
 513.56;12131.045;  306.947;50200.284; 0.62527
 514.15;12393.612;  297.484;50225.841; 0.61570
 514.73;12663.775;  293.306;50310.339; 0.60673
 515.32;12836.148;  298.909;50412.714; 0.60176
 515.90;13015.239;  306.909;50529.464; 0.59681
 516.49;13219.716;  321.223;50576.262; 0.59064
 517.07;13453.932;  323.415;50501.804; 0.58223
 517.66;13728.752;  325.663;50468.951; 0.57301
 518.24;13919.577;  330.491;50581.443; 0.56795
 518.82;14088.249;  322.791;50433.118; 0.56114
 519.41;14263.714;  321.449;50483.238; 0.55604
 519.99;14555.767;  304.901;50520.942; 0.54700
 520.58;14876.678;  313.039;50964.514; 0.54132
 521.16;15196.018;  316.114;51139.212; 0.53346
 521.75;15513.964;  315.579;51354.849; 0.52611
 522.33;15933.293;  314.722;51552.832; 0.51595
 522.91;16233.929;  303.280;51724.449; 0.50891
 523.50;16500.574;  304.661;51708.091; 0.50159
 524.08;16674.010;  292.957;51816.521; 0.49766
 524.67;16983.655;  296.699;52029.160; 0.49139
 525.25;17233.802;  294.898;52244.306; 0.48670
 525.83;17582.841;  300.195;52281.679; 0.47824
 526.42;17828.820;  299.604;52255.985; 0.47188
 527.00;18142.816;  297.414;52315.968; 0.46463
 527.59;18425.247;  293.742;52194.390; 0.45674
 528.17;18740.654;  296.702;52169.461; 0.44909
 528.75;19082.977;  314.407;52237.781; 0.44193
 529.34;19381.400;  317.963;52410.206; 0.43657
 529.92;19640.224;  322.096;52599.701; 0.43235
 530.50;19755.615;  308.099;52577.086; 0.42938
 531.09;20033.785;  310.277;52580.588; 0.42327
 531.67;20280.930;  319.699;52493.409; 0.41726
 532.25;20549.813;  331.224;52474.618; 0.41145
 532.84;20656.284;  319.265;52286.406; 0.40744
 533.42;20818.002;  303.579;52069.121; 0.40198
 534.00;21036.493;  296.379;51800.283; 0.39503
 534.59;21252.899;  306.923;51692.027; 0.38974
 535.17;21426.505;  307.396;51484.292; 0.38440
 535.75;21626.576;  311.833;51399.345; 0.37963
 536.34;21770.875;  327.170;51106.314; 0.37439
 536.92;21958.573;  323.362;50970.357; 0.36939
 537.50;22046.919;  320.767;50555.361; 0.36402
 538.09;22156.502;  304.234;50224.272; 0.35878
 538.67;22202.590;  307.957;49849.711; 0.35463
 539.25;22283.113;  292.004;49517.578; 0.34994
 539.84;22374.309;  298.382;49195.084; 0.34536
 540.42;22416.325;  287.620;48747.408; 0.34043
 541.00;22524.861;  304.712;48328.615; 0.33471
 541.59;22538.385;  293.453;47996.146; 0.33131
 542.17;22710.223;  303.713;47681.974; 0.32520
 542.75;22863.010;  301.687;47449.085; 0.32009
 543.33;22948.020;  321.928;47035.436; 0.31483
 543.92;22992.713;  322.791;46647.473; 0.31036
 544.50;22962.244;  319.637;46212.001; 0.30681
 545.08;23041.986;  303.653;45900.067; 0.30217
 545.67;23057.778;  304.594;45544.519; 0.29848
 546.25;23108.191;  306.855;45243.598; 0.29464
 546.83;23200.818;  305.919;44881.223; 0.28936
 547.41;23260.892;  307.185;44485.963; 0.28436
 548.00;23394.677;  304.048;44073.416; 0.27773
 548.58;23413.610;  293.554;43651.340; 0.27308
 549.16;23423.910;  273.252;43462.973; 0.27082
 549.74;23428.944;  276.221;43125.006; 0.26734
 550.33;23523.969;  287.338;42789.017; 0.26223
 550.91;23713.759;  287.502;42328.145; 0.25397
 551.49;23764.000;  275.114;42084.067; 0.25041
 552.07;23871.277;  281.527;41894.675; 0.24651
 552.66;23952.527;  296.715;41696.915; 0.24306
 553.24;24137.748;  301.874;41407.799; 0.23667
 553.82;24283.015;  287.046;41262.389; 0.23238
 554.40;24386.276;  287.502;41018.645; 0.22793
 554.98;24475.816;  286.839;40927.197; 0.22534
 555.57;24532.719;  295.511;40724.442; 0.22221
 556.15;24626.804;  295.794;40729.857; 0.22059
 556.73;24729.811;  289.872;40584.856; 0.21715
 557.31;24897.395;  280.087;40487.094; 0.21306
 557.89;25009.537;  267.680;40402.230; 0.21009
 558.48;25188.791;  270.725;40389.487; 0.20683
 559.06;25399.278;  269.279;40492.969; 0.20429
 559.64;25708.333;  288.172;40421.363; 0.19833
 560.22;25840.128;  308.276;40298.501; 0.19487
 560.80;25970.734;  311.749;40155.433; 0.19112
 561.39;25986.454;  300.174;40123.139; 0.19043
 561.97;26141.122;  304.256;40118.465; 0.18780
 562.55;26428.914;  305.864;40159.584; 0.18344
 563.13;26677.479;  307.652;40244.814; 0.18027
 563.71;26882.991;  295.320;40343.674; 0.17790
 564.29;27051.813;  296.315;40286.513; 0.17454
 564.88;27300.678;  280.495;40218.374; 0.16970
 565.46;27448.421;  277.260;40267.767; 0.16785
 566.04;27694.562;  269.464;40338.574; 0.16466
 566.62;27839.770;  292.162;40520.457; 0.16445
 567.20;28102.323;  292.265;40647.678; 0.16170
 567.78;28210.396;  300.170;40851.754; 0.16224
 568.36;28521.730;  300.837;41002.754; 0.15904
 568.94;28764.838;  296.460;41004.189; 0.15531
 569.53;28996.844;  295.816;41099.192; 0.15280
 570.11;29144.145;  283.902;41113.488; 0.15067
 570.69;29333.908;  278.869;41248.245; 0.14924
 571.27;29384.925;  279.854;41227.262; 0.14826
 571.85;29623.886;  279.584;41295.220; 0.14543
 572.43;29914.894;  299.078;41479.213; 0.14316
 573.01;30235.551;  288.199;41566.526; 0.13936
 573.59;30353.024;  284.931;41522.011; 0.13718
 574.17;30397.309;  270.419;41423.650; 0.13545
 574.76;30587.408;  278.826;41529.098; 0.13386
 575.34;30779.973;  274.920;41725.997; 0.13316
 575.92;30999.499;  271.771;41808.186; 0.13090
 576.50;31163.148;  265.398;41828.507; 0.12878
 577.08;31436.024;  261.206;41866.048; 0.12534
 577.66;31654.010;  250.776;41875.013; 0.12237
 578.24;31793.165;  252.747;41879.155; 0.12050
 578.82;31757.588;  257.942;41897.583; 0.12120
 579.40;31778.881;  266.978;41903.210; 0.12100
 579.98;31871.299;  273.567;41841.961; 0.11911
 580.56;32143.988;  281.852;41853.319; 0.11552
 581.14;32365.502;  291.659;41917.834; 0.11322
 581.72;32558.915;  280.280;42082.244; 0.11228
 582.30;32665.482;  273.151;42074.467; 0.11075
 582.88;32783.301;  274.650;42152.288; 0.10998
 583.46;33017.491;  282.363;42189.821; 0.10728
 584.04;33176.117;  282.956;42171.457; 0.10499
 584.62;33315.809;  265.125;42197.830; 0.10337
 585.21;33337.415;  267.265;42241.428; 0.10355
 585.79;33481.337;  273.754;42392.009; 0.10323
 586.37;33653.637;  277.118;42415.309; 0.10123
 586.95;33780.471;  275.522;42455.787; 0.10000
 587.53;33956.519;  269.979;42469.819; 0.09785
 588.11;34226.286;  278.442;42585.262; 0.09560
 588.69;34476.210;  282.733;42557.865; 0.09214
 589.27;34523.487;  283.424;42506.477; 0.09102
 589.85;34570.951;  276.026;42443.602; 0.08975
 590.43;34655.624;  271.715;42599.939; 0.09027
 591.01;34775.532;  278.076;42722.853; 0.09004
 591.59;34861.622;  288.299;42936.945; 0.09116
 592.16;35037.001;  287.924;42891.657; 0.08850
 592.74;35114.731;  291.617;42886.045; 0.08749
 593.32;35147.982;  293.193;42739.948; 0.08558
 593.90;35199.006;  297.895;42708.966; 0.08464
 594.48;35279.739;  288.777;42603.037; 0.08253
 595.06;35473.501;  285.245;42684.475; 0.08096
 595.64;35435.262;  272.769;42709.242; 0.08166
 596.22;35552.494;  276.890;42757.472; 0.08072
 596.80;35442.648;  268.138;42505.619; 0.07947
 597.38;35434.592;  264.245;42457.558; 0.07907
 597.96;35435.609;  262.869;42299.911; 0.07743
 598.54;35508.767;  268.057;42320.734; 0.07675
 599.12;35585.779;  272.769;42174.074; 0.07429
 599.70;35578.993;  272.156;42133.628; 0.07396
 600.28;35485.907;  269.178;41999.881; 0.07371
 600.86;35514.270;  273.568;41898.236; 0.07231
 601.44;35557.355;  279.130;41816.989; 0.07094
 602.02;35697.682;  273.135;41601.984; 0.06695
 602.59;35666.870;  269.019;41487.164; 0.06611
 603.17;35630.021;  254.435;41427.991; 0.06591
 603.75;35505.386;  264.600;41407.036; 0.06724
 604.33;35453.719;  268.544;41269.041; 0.06643
 604.91;35450.323;  272.574;41056.648; 0.06422
 605.49;35480.414;  271.546;40985.067; 0.06309
 606.07;35350.242;  254.900;40828.877; 0.06300
 606.65;35117.400;  260.422;40696.701; 0.06448
 607.23;34904.832;  264.441;40448.820; 0.06447
 607.80;34841.718;  277.156;40221.379; 0.06282
 608.38;34714.156;  277.256;40025.464; 0.06229
 608.96;34732.699;  285.786;39921.000; 0.06093
 609.54;34568.409;  288.246;39743.725; 0.06106
 610.12;34530.058;  283.928;39528.375; 0.05917
 610.70;34193.972;  273.259;39095.265; 0.05861
 611.28;34043.769;  259.195;38813.390; 0.05735
 611.85;33727.942;  265.841;38433.913; 0.05715
 612.43;33513.980;  260.695;38304.961; 0.05845
 613.01;33247.184;  263.202;38019.161; 0.05868
 613.59;33188.139;  249.299;37795.112; 0.05685
 614.17;33145.771;  240.914;37668.085; 0.05593
 614.75;33096.222;  222.778;37521.205; 0.05485
 615.32;32821.467;  209.277;37291.775; 0.05579
 615.90;32625.590;  219.080;36866.572; 0.05341
 616.48;32285.001;  232.952;36658.988; 0.05556
 617.06;32138.838;  255.157;36308.488; 0.05338
 617.64;31951.826;  246.140;36072.812; 0.05307
 618.22;31724.198;  241.049;35666.522; 0.05124
 618.79;31548.965;  228.178;35515.632; 0.05179
 619.37;31282.016;  227.104;35180.352; 0.05136
 619.95;31129.285;  231.387;34894.600; 0.04994
 620.53;30741.850;  218.869;34491.494; 0.05032
 621.11;30407.644;  206.529;34156.975; 0.05082
 621.68;30229.700;  201.116;33920.700; 0.05035
 622.26;30222.787;  202.843;33803.106; 0.04893
 622.84;30063.392;  212.594;33643.042; 0.04919
 623.42;29839.086;  214.208;33340.072; 0.04851
 623.99;29557.838;  232.130;33128.823; 0.04990
 624.57;29437.221;  239.695;32874.211; 0.04833
 625.15;29255.621;  249.244;32723.283; 0.04904
 625.73;29069.785;  235.066;32483.448; 0.04859
 626.30;28921.131;  228.444;32290.122; 0.04822
 626.88;28734.612;  228.031;32032.596; 0.04754
 627.46;28564.457;  230.061;31766.787; 0.04650
 628.04;28285.217;  242.419;31549.234; 0.04782
 628.61;28229.087;  241.899;31249.103; 0.04450
 629.19;28088.074;  244.829;31015.066; 0.04341
 629.77;27872.103;  231.831;30736.758; 0.04283
 630.35;27566.196;  234.217;30562.869; 0.04518
 630.92;27284.240;  232.092;30375.921; 0.04700
 631.50;27284.786;  220.757;30199.145; 0.04442
 632.08;27090.983;  206.521;29949.680; 0.04389
 632.66;26864.103;  196.801;29744.460; 0.04454
 633.23;26562.735;  216.776;29426.430; 0.04481
 633.81;26413.662;  225.566;29138.020; 0.04298
 634.39;26254.410;  220.298;28844.754; 0.04119
 634.96;26162.117;  221.956;28624.791; 0.03939
 635.54;26057.871;  216.680;28606.896; 0.04086
 636.12;25888.929;  214.735;28334.976; 0.03952
 636.69;25563.886;  204.526;28222.591; 0.04330
 637.27;25243.809;  199.403;27913.834; 0.04400
 637.85;25097.374;  217.219;27696.062; 0.04315
 638.42;24970.967;  206.286;27392.989; 0.04052
 639.00;24873.423;  223.367;27259.457; 0.04013
 639.58;24686.568;  209.789;26981.612; 0.03892
 640.15;24426.429;  222.891;26790.445; 0.04047
 640.73;24255.211;  204.119;26492.226; 0.03862
 641.31;24176.993;  216.013;26471.006; 0.03971
 641.88;24037.774;  210.908;26285.787; 0.03916
 642.46;23921.556;  226.803;26132.901; 0.03875
 643.04;23656.338;  214.697;25934.349; 0.04028
 643.61;23644.786;  223.925;25817.463; 0.03853
 644.19;23434.568;  209.153;25659.577; 0.03973
 644.77;23344.349;  224.048;25468.358; 0.03817
 645.34;23227.798;  211.943;25293.805; 0.03733
 645.92;23175.913;  214.504;25070.586; 0.03443
 646.49;23037.028;  218.399;24938.033; 0.03475
 647.07;22904.476;  220.293;24745.814; 0.03390
 647.65;22616.591;  224.188;24564.928; 0.03623
 648.22;22488.373;  218.082;24391.042; 0.03560
 648.80;22357.155;  227.310;24368.156; 0.03777
 649.37;22418.603;  227.872;24339.937; 0.03606
 649.95;22377.051;  227.433;24242.051; 0.03511
 650.53;22273.166;  209.328;24121.165; 0.03493
 651.10;22132.948;  214.222;24054.279; 0.03649
 651.68;21976.730;  211.450;24020.060; 0.03897
 652.25;21866.845;  221.012;23899.174; 0.03897
 652.83;21788.960;  211.573;23700.955; 0.03687
 653.41;21724.408;  208.468;23524.069; 0.03489
 653.98;21593.856;  212.362;23340.850; 0.03411
 654.56;21485.638;  211.590;23307.630; 0.03569
 655.13;21486.086;  208.818;23285.744; 0.03526
 655.71;21463.201;  207.379;23284.525; 0.03570
 656.28;21358.983;  194.941;23185.639; 0.03595
 656.86;21263.098;  188.169;22962.753; 0.03368
 657.43;21296.213;  190.397;22872.868; 0.03129
 658.01;21344.662;  212.958;22793.315; 0.02880
 658.58;21322.443;  207.519;22876.096; 0.03083
 659.16;21277.225;  211.747;22798.876; 0.03029
 659.74;21234.673;  196.309;22777.324; 0.03073
 660.31;21216.122;  204.203;22714.438; 0.02991
 660.89;21087.570;  198.098;22687.885; 0.03206
 661.46;21003.685;  206.659;22545.999; 0.03107
 662.04;20897.133;  208.554;22516.780; 0.03273
 662.61;20923.248;  207.448;22500.894; 0.03188
 663.19;20948.030;  206.676;22626.342; 0.03379
 663.76;20989.145;  209.571;22600.456; 0.03243
 664.34;20975.260;  211.132;22526.237; 0.03129
 664.91;20937.375;  214.027;22413.684; 0.02989
 665.49;21015.823;  216.922;22441.798; 0.02880
 666.06;21061.605;  213.150;22513.246; 0.02923
 666.64;21122.387;  212.044;22555.693; 0.02879
 667.21;21083.502;  216.606;22500.140; 0.02853
 667.79;21069.950;  204.167;22400.588; 0.02685
 668.36;21071.732;  201.395;22402.702; 0.02685
 668.93;21009.847;  202.290;22421.149; 0.02850
 669.51;20992.295;  198.184;22426.263; 0.02896
 670.08;20889.077;  192.412;22387.044; 0.03035
 670.66;20929.192;  189.307;22273.825; 0.02728
 671.23;20932.974;  213.201;22361.606; 0.02896
 671.81;21034.755;  219.763;22403.720; 0.02766
 672.38;21139.204;  224.324;22501.167; 0.02740
 672.96;21095.652;  213.552;22510.281; 0.02847
 673.53;21168.434;  213.113;22482.395; 0.02641
 674.10;21089.882;  213.008;22524.843; 0.02887
 674.68;21136.664;  228.236;22505.290; 0.02754
 675.25;21087.445;  221.131;22417.404; 0.02683
 675.83;21026.894;  215.692;22370.185; 0.02716
 676.40;21049.342;  203.253;22300.299; 0.02531
 676.98;20985.457;  209.148;22323.413; 0.02710
 677.55;20962.905;  210.043;22281.527; 0.02675
 678.12;20930.354;  223.937;22260.975; 0.02705
 678.70;20937.469;  221.832;22236.089; 0.02641
 679.27;20929.584;  229.060;22163.870; 0.02515
 679.85;20821.032;  216.621;22124.984; 0.02665
 680.42;20825.147;  216.516;22133.431; 0.02673
 680.99;20763.596;  192.744;22099.212; 0.02732
 681.57;20787.377;  198.305;22028.659; 0.02542
 682.14;20693.492;  205.866;21848.773; 0.02382
 682.71;20693.941;  210.761;21795.554; 0.02275
 683.29;20613.389;  200.656;21706.668; 0.02266
 683.86;20419.504;  185.884;21546.116; 0.02353
 684.43;20237.286;  198.112;21362.230; 0.02372
 685.01;20178.401;  197.006;21197.011; 0.02159
 685.58;20235.849;  206.234;21272.458; 0.02191
 686.16;20288.964;  206.462;21269.239; 0.02070
 686.73;20274.746;  215.023;21397.686; 0.02366
 687.30;20285.861;  207.585;21388.467; 0.02322
 687.88;20258.642;  217.479;21321.914; 0.02245
 688.45;20106.091;  210.707;21118.362; 0.02155
 689.02;19977.872;  213.602;21022.142; 0.02236
 689.60;19883.321;  190.497;20889.257; 0.02164
 690.17;19938.769;  199.391;20926.704; 0.02121
 690.74;19861.218;  189.619;20805.485; 0.02036
 691.31;19844.333;  204.181;20824.932; 0.02116
 691.89;19655.114;  191.742;20754.713; 0.02387
 692.46;19587.229;  212.637;20700.494; 0.02426
 693.03;19496.344;  229.198;20611.941; 0.02445
 693.61;19517.459;  234.759;20426.722; 0.02001
 694.18;19438.574;  237.320;20424.503; 0.02175
 694.75;19319.356;  206.882;20414.950; 0.02421
 695.32;19304.804;  208.110;20458.064; 0.02547
 695.90;19234.586;  203.004;20312.512; 0.02393
 696.47;19218.701;  203.899;20210.626; 0.02208
 697.04;19111.483;  214.460;20060.073; 0.02127
 697.62;19117.264;  213.355;20039.187; 0.02068
 698.19;19106.046;  229.250;19951.301; 0.01902
 698.76;19075.494;  211.144;19960.082; 0.01990
 699.33;19078.276;  210.706;19883.196; 0.01814
 699.91;18959.391;  196.600;19795.977; 0.01894
 700.48;18834.506;  206.162;19674.091; 0.01915
 701.05;18650.288;  208.056;19645.538; 0.02283
 701.62;18539.736;  232.951;19536.652; 0.02303
 702.20;18544.518;  235.179;19463.767; 0.02127
 702.77;18511.300;  232.073;19314.881; 0.01868
 703.34;18558.748;  217.301;19303.995; 0.01730
 703.91;18448.530;  214.196;19161.775; 0.01666
 704.48;18289.311;  220.091;19054.223; 0.01801
 705.06;18183.760;  212.652;18964.004; 0.01846
 705.63;18109.208;  221.213;18940.118; 0.01972
 706.20;18196.990;  214.441;18934.565; 0.01746
 706.77;18084.771;  221.336;18864.679; 0.01856
 707.34;18073.220;  215.564;18821.793; 0.01783
 707.92;17949.668;  205.792;18710.907; 0.01824
 708.49;17841.783;  193.353;18575.022; 0.01768
 709.06;17743.898;  193.248;18466.136; 0.01751
 709.63;17680.680;  194.476;18431.916; 0.01827
 710.20;17718.795;  191.037;18446.697; 0.01767
 710.77;17598.243;  187.932;18338.145; 0.01808
 711.35;17592.358;  185.826;18305.592; 0.01744
 711.92;17598.807;  205.721;18271.706; 0.01649
 712.49;17712.588;  207.616;18372.487; 0.01607
 713.06;17684.370;  215.844;18405.934; 0.01758
 713.63;17696.818;  209.405;18498.382; 0.01946
 714.20;17691.933;  212.300;18556.829; 0.02097
 714.78;17754.382;  209.528;18487.277; 0.01777
 715.35;17695.497;  205.756;18407.724; 0.01733
 715.92;17665.612;  207.317;18351.838; 0.01674
 716.49;17677.393;  222.545;18343.285; 0.01626
 717.06;17738.175;  226.106;18273.400; 0.01307
 717.63;17736.623;  217.334;18198.847; 0.01131
 718.20;17553.738;  210.895;18175.294; 0.01529
 718.77;17490.187;  224.790;18170.075; 0.01677
 719.35;17410.968;  226.351;18153.189; 0.01836
 719.92;17406.750;  211.913;18038.303; 0.01567
 720.49;17281.532;  197.474;17879.084; 0.01493
 721.06;17208.647;  177.369;17774.532; 0.01420
 721.63;17203.095;  190.930;17799.979; 0.01498
 722.20;17184.210;  195.825;17861.426; 0.01698
 722.77;17168.992;  203.386;17825.540; 0.01649
 723.34;17178.440;  196.947;17821.321; 0.01614
 723.91;17230.555;  205.509;17813.102; 0.01461
 724.48;17185.004;  222.070;17777.883; 0.01492
 725.05;17087.452;  212.964;17617.997; 0.01344
 725.62;16913.234;  195.192;17490.778; 0.01475
 726.20;16914.682;  186.754;17461.892; 0.01398
 726.77;16982.130;  192.982;17446.339; 0.01184
 727.34;16968.245;  199.210;17412.787; 0.01136
 727.91;16943.027;  209.104;17361.567; 0.01073
 728.48;16885.475;  214.999;17354.015; 0.01204
 729.05;16990.257;  215.560;17353.795; 0.00931
 729.62;16964.039;  192.788;17320.910; 0.00914
 730.19;16915.154;  185.683;17297.024; 0.00980
 730.76;16882.602;  188.578;17324.138; 0.01134
 731.33;16846.384;  211.472;17306.252; 0.01184
 731.90;16840.832;  215.034;17274.033; 0.01117
 732.47;16812.281;  206.261;17242.147; 0.01110
 733.04;16737.396;  191.156;17245.594; 0.01314
 733.61;16648.511;  168.051;17256.042; 0.01572
 734.18;16521.292;  173.945;17191.156; 0.01744
 734.75;16448.407;  184.507;17077.270; 0.01648
 735.32;16429.522;  211.401;16955.384; 0.01386
 735.89;16409.304;  203.963;16851.831; 0.01170
 736.46;16426.419;  212.191;16734.945; 0.00819
 737.03;16329.534;  203.085;16674.393; 0.00919
 737.60;16290.649;  203.647;16580.840; 0.00776
 738.17;16196.431;  173.208;16558.621; 0.00971
 738.74;16163.546;  184.103;16523.735; 0.00968
 739.31;16061.994;  185.331;16430.849; 0.00997
 739.88;15947.776;  195.225;16300.630; 0.00962
 740.45;15879.891;  176.120;16234.411; 0.00970
 741.02;15805.006;  174.348;16293.858; 0.01337
 741.59;15837.121;  171.909;16337.305; 0.01365
 742.15;15867.569;  177.804;16325.753; 0.01250
 742.72;15963.684;  185.365;16376.867; 0.01123
 743.29;16031.799;  187.593;16351.648; 0.00868
 743.86;16002.581;  195.154;16298.095; 0.00804
 744.43;15928.029;  197.049;16220.543; 0.00800
 745.00;15864.144;  201.277;16240.323; 0.01031
 745.57;15842.259;  209.172;16261.771; 0.01150
 746.14;15853.041;  201.733;16198.552; 0.00948
 746.71;15857.156;  208.294;16179.666; 0.00886
 747.28;15893.271;  196.522;16170.446; 0.00760
 747.85;15800.053;  172.417;16124.227; 0.00892
 748.42;15759.834;  173.645;16103.675; 0.00948
 748.98;15722.616;  177.206;16075.455; 0.00975
 749.55;15798.731;  197.767;16011.569; 0.00588
 750.12;15808.846;  197.662;16015.683; 0.00572
 750.69;15799.628;  204.890;15955.131; 0.00431
 751.26;15635.076;  216.118;15910.245; 0.00768
 751.83;15574.524;  206.013;15821.026; 0.00691
 752.40;15396.639;  204.907;15769.807; 0.01054
 752.97;15459.754;  192.802;15780.587; 0.00903
 753.53;15412.536;  195.697;15773.035; 0.01017
 754.10;15503.651;  187.925;15706.815; 0.00572
 754.67;15436.766;  185.486;15666.263; 0.00649
 755.24;15357.215;  192.714;15616.044; 0.00735
 755.81;15270.663;  200.608;15583.491; 0.00892
 756.38;15189.778;  223.503;15510.272; 0.00920
 756.94;15201.893;  215.064;15482.386; 0.00805
 757.51;15026.008;  204.292;15502.833; 0.01375
 758.08;14997.456;  196.520;15545.281; 0.01578
 758.65;14945.571;  213.748;15443.728; 0.01444
 759.22;14955.020;  220.643;15351.176; 0.01152
 759.79;14866.468;  205.538;15180.623; 0.00921
 760.35;14717.250;  191.432;15130.404; 0.01218
 760.92;14619.698;  201.994;14987.518; 0.01094
 761.49;14581.146;  208.555;14849.965; 0.00805
 762.06;14542.595;  211.783;14641.079; 0.00297
 762.63;14438.376;  201.011;14500.527; 0.00189
 763.19;14293.158;  203.239;14469.641; 0.00541
 763.76;14172.606;  215.133;14423.422; 0.00773
 764.33;14078.055;  219.695;14294.202; 0.00672
 764.90;13962.837;  218.589;14107.650; 0.00455
 765.46;13773.952;  197.817;13914.097; 0.00446
 766.03;13634.067;  196.045;13749.878; 0.00373
 766.60;13486.515;  197.940;13624.992; 0.00450
 767.17;13361.297;  205.501;13465.773; 0.00344
 767.73;13195.078;  207.063;13413.220; 0.00723
 768.30;13028.860;  206.624;13205.001; 0.00593
 768.87;12827.642;  215.185;13045.782; 0.00745
 769.44;12708.090;  213.413;12836.229; 0.00443
 770.00;12497.538;  215.975;12686.677; 0.00664
 770.57;12353.320;  216.536;12525.791; 0.00613
 771.14;12096.102;  213.430;12350.238; 0.00919
 771.71;11878.883;  198.325;12122.686; 0.00897
 772.27;11688.332;  206.220;11935.800; 0.00926
 772.84;11568.447;  209.448;11715.914; 0.00560
 773.41;11452.228;  213.676;11595.695; 0.00551
 773.97;11297.010;  205.904;11440.809; 0.00559
 774.54;11062.458;  213.798;11314.923; 0.00999
 775.11;10947.240;  232.360;11227.370; 0.01121
 775.67;10776.689;  228.588;11074.818; 0.01210
 776.24;10672.137;  222.482;10902.265; 0.00946
 776.81;10583.919;  220.377;10665.712; 0.00341
 777.38;10455.367;  208.272;10484.160; 0.00122
 777.94;10381.815;  214.166;10350.941;-0.00132
 778.51;10171.264;  199.728;10214.721; 0.00189
 779.08;10097.712;  210.622;10137.835; 0.00176
 779.64; 9960.160;  201.517;10058.283; 0.00434
 780.21; 9884.609;  202.745; 9970.064; 0.00382
 780.78; 9773.390;  211.639; 9870.178; 0.00437
 781.34; 9708.172;  212.534; 9787.625; 0.00362
 781.91; 9603.620;  225.762; 9703.406; 0.00460
 782.47; 9533.402;  227.990; 9633.520; 0.00465
 783.04; 9409.850;  238.551; 9482.634; 0.00343
 783.61; 9320.965;  245.779; 9385.415; 0.00307
 784.17; 9234.414;  246.674; 9320.196; 0.00413
 784.74; 9180.862;  236.569; 9240.310; 0.00288
 785.31; 9143.644;  244.797; 9256.090; 0.00545
 785.87; 9102.092;  248.691; 9137.538; 0.00174
 786.44; 9062.874;  252.252; 9126.319; 0.00312
 787.00; 8992.322;  239.480; 9065.766; 0.00363
 787.57; 8957.437;  222.375; 9005.880; 0.00240
 788.14; 8882.219;  242.936; 8941.661; 0.00298
 788.70; 8825.667;  252.831; 8828.442; 0.00014
 789.27; 8828.116;  261.392; 8880.222; 0.00263
 789.83; 8827.564;  247.620; 8836.003; 0.00043
 790.40; 8842.679;  230.182; 8838.117;-0.00023
 790.96; 8750.461;  235.076; 8799.898; 0.00251
 791.53; 8748.242;  229.304; 8766.679; 0.00094
 792.10; 8699.691;  224.866; 8777.126; 0.00395
 792.66; 8626.806;  219.094; 8720.574; 0.00482
 793.23; 8562.587;  214.988; 8733.688; 0.00881
 793.79; 8527.702;  216.216; 8675.468; 0.00765
 794.36; 8521.484;  210.777; 8660.249; 0.00719
 794.92; 8507.266;  219.339; 8606.363; 0.00516
 795.49; 8549.047;  232.233; 8532.811;-0.00085
 796.05; 8525.496;  243.461; 8505.258;-0.00106
 796.62; 8495.278;  248.023; 8527.372; 0.00169
 797.19; 8370.059;  237.917; 8507.820; 0.00730
 797.75; 8345.174;  226.145; 8453.600; 0.00576
 798.32; 8304.956;  218.373; 8393.714; 0.00474
 798.88; 8317.404;  222.601; 8383.829; 0.00355
 799.45; 8337.519;  224.829; 8436.276; 0.00525
 800.01; 8460.968;  220.391; 8517.723; 0.00298
 800.58; 8671.749;  215.952; 8677.504; 0.00030
 801.14; 8897.864;  222.513; 8916.952; 0.00095
 801.71; 9115.979;  218.074; 9117.399; 0.00007
 802.27; 9341.428;  206.969; 9310.180;-0.00149
 802.84; 9623.876;  188.864; 9480.294;-0.00666
 803.40; 9844.658;  179.758; 9723.075;-0.00550
 803.96;10060.439;  198.986;10006.189;-0.00240
 804.53;10367.554;  210.548;10273.303;-0.00405
 805.09;10726.336;  208.442;10576.417;-0.00623
 805.66;11166.451;  200.670;10926.198;-0.00962
 806.22;11408.899;  172.898;11264.978;-0.00560
 806.79;11748.348;  185.793;11622.426;-0.00476
 807.35;12027.130;  182.354;11886.873;-0.00517
 807.92;12407.245;  214.582;12161.654;-0.00884
 808.48;12729.360;  221.810;12436.768;-0.01028
 809.05;12991.475;  217.705;12708.882;-0.00972
 809.61;13260.590;  213.933;13054.330;-0.00692
 810.17;13545.371;  218.827;13355.110;-0.00625
 810.74;13920.153;  231.055;13671.891;-0.00795
 811.30;14255.935;  226.617;13899.672;-0.01117
 811.87;14535.050;  214.511;14212.453;-0.00990
 812.43;14810.831;  214.406;14571.233;-0.00719
 812.99;15075.280;  216.967;14881.014;-0.00572
 813.56;15454.728;  221.862;15191.462;-0.00757
 814.12;15826.843;  221.090;15523.909;-0.00851
 814.69;16282.958;  216.318;15866.356;-0.01141
 815.25;16547.406;  210.213;16143.804;-0.01086
 815.81;16883.521;  200.774;16302.251;-0.01540
 816.38;17271.303;  196.335;16642.699;-0.01629
 816.94;17587.418;  193.897;16882.479;-0.01797
 817.51;17776.200;  192.791;17283.594;-0.01234
 818.07;17895.315;  201.019;17504.374;-0.00970
 818.63;18167.430;  202.247;17804.155;-0.00887
 819.20;18421.545;  201.808;18033.936;-0.00934
 819.76;18689.660;  209.370;18216.050;-0.01128
 820.32;18879.442;  216.598;18394.831;-0.01143
 820.89;19020.890;  218.159;18583.278;-0.01023
 821.45;19097.672;  193.387;18775.726;-0.00746
 822.01;19206.120;  176.615;18965.173;-0.00553
 822.58;19422.235;  180.843;19065.620;-0.00812
 823.14;19585.683;  194.404;19233.068;-0.00797
 823.70;19685.132;  202.299;19352.182;-0.00749
 824.27;19654.913;  193.194;19462.963;-0.00430
 824.83;19607.362;  215.421;19467.743;-0.00314
 825.39;19618.143;  215.649;19374.524;-0.00549
 825.95;19549.925;  221.211;19316.972;-0.00527
 826.52;19432.373;  191.105;19274.752;-0.00357
 827.08;19203.488;  189.000;19152.200;-0.00117
 827.64;19011.270;  175.895;18949.314;-0.00143
 828.21;18798.052;  175.123;18660.095;-0.00323
 828.77;18519.167;  181.351;18397.542;-0.00289
 829.33;18277.615;  183.579;18029.323;-0.00600
 829.89;17946.397;  181.807;17638.104;-0.00760
 830.46;17583.845;  185.701;17297.218;-0.00721
 831.02;17097.294;  190.596;16895.332;-0.00522
 831.58;16689.409;  201.157;16540.779;-0.00393
 832.15;16189.857;  185.052;16128.893;-0.00166
 832.71;15806.972;  188.280;15811.341; 0.00012
 833.27;15371.754;  178.841;15353.455;-0.00052
 833.83;15033.869;  169.736;14940.569;-0.00273
 834.39;14461.317;  164.297;14394.016;-0.00205
 834.96;13937.432;  162.192;13925.464;-0.00038
 835.52;13441.547;  187.086;13474.578; 0.00108
 836.08;13107.329;  188.981;13047.025;-0.00203
 836.64;12691.777;  194.876;12619.473;-0.00252
 837.21;12350.225;  198.770;12148.920;-0.00725
 837.77;11885.674;  198.332;11759.367;-0.00472
 838.33;11467.122;  206.893;11447.148;-0.00077
 838.89;10967.237;  203.121;11001.596; 0.00138
 839.45;10589.686;  205.349;10589.710; 0.00000
 840.02;10233.134;  209.910;10134.490;-0.00430
 840.58; 9946.249;  201.805; 9836.938;-0.00490
 841.14; 9521.031;  224.699; 9457.052;-0.00300
 841.70; 9095.146;  220.594; 9049.833;-0.00222
 842.26; 8577.261;  218.155; 8613.280; 0.00187
 842.82; 8236.376;  209.050; 8233.061;-0.00018
 843.39; 7816.157;  200.278; 7802.175;-0.00080
 843.95; 7480.939;  213.839; 7446.956;-0.00204
 844.51; 7132.721;  213.734; 7076.737;-0.00353
 845.07; 6907.169;  223.295; 6751.184;-0.01026
 845.63; 6631.951;  228.523; 6447.965;-0.01266
 846.19; 6365.066;  213.418; 6205.745;-0.01140
 846.75; 6086.181;  212.646; 6042.860;-0.00322
 847.32; 5836.296;  191.874; 5828.307;-0.00062
 847.88; 5670.411;  198.435; 5647.088;-0.00186
 848.44; 5486.859;  182.996; 5418.202;-0.00566
 849.00; 5361.974;  188.224; 5206.649;-0.01324
 849.56; 5188.423;  183.119; 5035.763;-0.01345
 850.12; 5034.871;  176.680; 4913.211;-0.01101
 850.68; 4935.986;  181.908; 4877.325;-0.00539
 851.24; 4900.434;  184.136; 4806.439;-0.00874
 851.80; 4891.549;  199.364; 4790.220;-0.00948
 852.37; 4808.331;  196.592; 4731.334;-0.00731
 852.93; 4775.446;  204.820; 4729.448;-0.00439
 853.49; 4739.894;  212.715; 4650.895;-0.00862
 854.05; 4748.009;  223.943; 4597.676;-0.01468
 854.61; 4692.458;  224.171; 4520.790;-0.01701
 855.17; 4657.573;  234.066; 4501.904;-0.01556
 855.73; 4620.021;  222.627; 4484.352;-0.01361
 856.29; 4640.136;  213.855; 4475.132;-0.01650
 856.85; 4681.584;  192.749; 4517.913;-0.01613
 857.41; 4759.699;  203.644; 4600.027;-0.01549
 857.97; 4809.148;  205.205; 4760.141;-0.00465
 858.53; 4872.596;  207.433; 4902.255; 0.00275
 859.09; 5066.711;  192.328; 5028.370;-0.00343
 859.65; 5300.160;  184.889; 5166.484;-0.01150
 860.21; 5604.608;  182.451; 5403.598;-0.01641
 860.77; 5898.056;  179.679; 5685.045;-0.01649
 861.33; 6204.505;  189.573; 6014.826;-0.01392
 861.89; 6532.953;  205.135; 6331.273;-0.01407
 862.45; 6873.068;  215.363; 6656.387;-0.01437
 863.01; 7226.516;  205.924; 6960.168;-0.01680
 863.57; 7561.298;  191.152; 7240.949;-0.01930
 864.13; 7872.080;  180.713; 7598.730;-0.01572
 864.69; 8245.861;  188.608; 7928.510;-0.01745
 865.25; 8646.643;  208.502; 8274.958;-0.01956
 865.81; 8976.758;  215.730; 8598.739;-0.01916
 866.37; 9282.873;  213.625; 8883.853;-0.01954
 866.93; 9559.655;  200.853; 9198.967;-0.01707
 867.49; 9874.436;  216.081; 9536.081;-0.01549
 868.05;10178.218;  210.642; 9849.195;-0.01458
 868.61;10529.333;  206.870;10116.309;-0.01773
 869.17;10913.782;  185.765;10306.090;-0.02532
 869.73;11298.897;  202.660;10652.537;-0.02606
 870.29;11595.012;  209.554;10985.985;-0.02388
 870.85;11889.127;  212.115;11316.099;-0.02185
 871.41;12181.242;  192.010;11700.213;-0.01778
 871.97;12542.690;  179.571;12032.994;-0.01828
 872.53;12940.472;  184.799;12414.108;-0.01830
 873.09;13294.587;  192.361;12748.222;-0.01850
 873.65;13663.702;  202.922;13125.336;-0.01773
 874.20;14040.483;  204.150;13530.783;-0.01630
 874.76;14475.150;  206.483;13844.450;-0.01963
 875.32;14908.817;  199.150;14344.450;-0.01699
 875.88;15351.150;  204.817;14722.117;-0.01842
 876.44;15716.483;  218.150;15059.450;-0.01881
 877.00;16133.483;  218.150;15358.117;-0.02169
 877.56;16370.150;  215.483;15696.450;-0.01850
 878.12;16740.150;  204.483;16104.450;-0.01703
 878.68;17026.483;  211.817;16344.450;-0.01798
 879.23;17325.150;  207.150;16637.783;-0.01780
 879.79;17519.150;  220.483;16875.783;-0.01646
 880.35;17714.150;  205.150;17127.117;-0.01481
 880.91;18019.817;  192.150;17367.783;-0.01618
 881.47;18246.150;  175.817;17611.783;-0.01552
 882.03;18537.483;  191.483;17929.783;-0.01463
 882.59;18783.150;  204.150;18199.450;-0.01386
 883.14;19020.150;  217.150;18423.117;-0.01401
 883.70;19153.150;  220.150;18492.117;-0.01543
 884.26;19206.483;  217.483;18606.117;-0.01395
 884.82;19259.483;  200.150;18627.783;-0.01464
 885.38;19181.483;  184.483;18693.783;-0.01130
 885.94;19158.483;  186.817;18692.783;-0.01079
 886.49;19165.483;  200.150;18759.783;-0.00939
 887.05;19179.483;  192.817;18819.450;-0.00831
 887.61;19068.817;  182.817;18766.450;-0.00701
 888.17;18955.150;  175.817;18655.450;-0.00699
 888.73;18856.483;  189.483;18492.450;-0.00855
 889.28;18772.483;  190.150;18251.117;-0.01236
 889.84;18532.817;  191.817;18020.450;-0.01230
 890.40;18369.483;  194.817;17792.450;-0.01401
 890.96;18166.150;  199.483;17628.450;-0.01320
 891.51;18097.483;  189.483;17470.117;-0.01549
 892.07;17841.483;  183.817;17244.117;-0.01495
 892.63;17712.150;  190.483;17036.783;-0.01707
 893.19;17468.483;  200.817;16880.117;-0.01506
 893.74;17370.150;  215.150;16772.783;-0.01539
 894.30;17251.817;  206.150;16671.450;-0.01504
 894.86;17219.150;  185.150;16510.450;-0.01846
 895.42;17093.150;  176.483;16397.450;-0.01824
 895.97;16931.483;  175.150;16362.450;-0.01500
 896.53;16853.150;  203.817;16299.450;-0.01469
 897.09;16792.483;  212.817;16258.117;-0.01423
 897.65;16723.483;  225.483;16079.783;-0.01728
 898.20;16555.150;  228.483;15994.117;-0.01519
 898.76;16451.150;  215.150;15888.117;-0.01533
 899.32;16388.483;  215.483;15824.450;-0.01542
 899.87;16254.150;  206.483;15765.117;-0.01344
 900.43;16096.817;  206.150;15631.783;-0.01290
 900.99;15953.483;  194.483;15508.450;-0.01244
 901.54;15877.483;  181.150;15319.450;-0.01572
 902.10;15692.150;  193.150;15133.117;-0.01595
 902.66;15504.817;  208.483;14918.117;-0.01699
 903.21;15284.150;  221.817;14754.117;-0.01556
 903.77;15113.150;  229.483;14588.450;-0.01559
 904.33;14976.483;  209.483;14443.783;-0.01596
 904.88;14902.483;  198.150;14329.783;-0.01725
 905.44;14894.150;  177.150;14293.450;-0.01810
 906.00;14823.817;  191.150;14324.117;-0.01509
 906.55;14671.483;  207.483;14294.117;-0.01148
 907.11;14547.817;  214.150;14239.117;-0.00946
 907.67;14336.150;  205.817;14016.117;-0.00995
 908.22;14237.483;  196.150;13855.783;-0.01197
 908.78;14109.817;  187.817;13715.783;-0.01247
 909.33;14047.150;  195.483;13616.783;-0.01371
 909.89;13933.817;  192.150;13488.783;-0.01430
 910.45;13828.483;  201.150;13406.783;-0.01365
 911.00;13703.817;  191.483;13362.117;-0.01112
 911.56;13677.483;  203.817;13272.117;-0.01327
 912.12;13566.817;  208.483;13101.117;-0.01541
 912.67;13532.150;  221.483;12951.117;-0.01938
 913.23;13310.150;  194.150;12807.450;-0.01697
 913.78;13158.483;  178.483;12651.783;-0.01729
 914.34;13001.150;  201.483;12642.117;-0.01236
 914.89;12937.150;  216.483;12543.117;-0.01367
 915.45;12875.150;  227.150;12558.117;-0.01102
 916.01;12823.483;  195.483;12386.117;-0.01531
 916.56;12702.150;  201.483;12282.450;-0.01483
 917.12;12550.150;  196.817;12063.117;-0.01747
 917.67;12426.817;  195.483;11981.117;-0.01612
 918.23;12334.483;  182.817;11944.450;-0.01417
 918.78;12274.817;  186.483;11927.117;-0.01267
 919.34;12106.817;  188.817;11843.783;-0.00969
 919.89;11952.817;  199.150;11694.117;-0.00967
 920.45;11806.483;  185.817;11531.783;-0.01039
 921.00;11640.483;  168.817;11330.783;-0.01189
 921.56;11548.817;  176.150;11296.783;-0.00973
 922.11;11450.150;  175.150;11154.450;-0.01154
 922.67;11409.817;  202.483;11048.450;-0.01423
 923.22;11286.483;  191.150;10815.450;-0.01884
 923.78;11115.483;  202.817;10632.117;-0.01968
 924.33;10927.483;  195.817;10497.117;-0.01778
 924.89;10700.150;  196.483;10361.117;-0.01425
 925.44;10545.150;  204.817;10248.117;-0.01266
 926.00;10354.150;  201.150;10018.783;-0.01459
 926.55;10243.483;  205.150; 9867.117;-0.01660
 927.11;10132.150;  188.150; 9720.450;-0.01836
 927.66;10055.817;  177.817; 9717.117;-0.01515
 928.22;10030.817;  174.483; 9670.783;-0.01616
 928.77; 9985.483;  190.150; 9636.117;-0.01577
 929.33; 9911.483;  204.150; 9587.783;-0.01473
 929.88; 9822.483;  205.150; 9516.450;-0.01404
 930.43; 9783.483;  182.483; 9493.450;-0.01332
 930.99; 9809.150;  174.817; 9470.117;-0.01556
 931.54; 9824.483;  167.150; 9456.783;-0.01686
 932.10; 9830.817;  190.150; 9473.117;-0.01642
 932.65; 9899.483;  197.150; 9480.117;-0.01919
 933.21; 9889.483;  198.483; 9496.450;-0.01798
 933.76; 9927.150;  187.483; 9472.117;-0.02078
 934.31; 9855.483;  183.150; 9454.117;-0.01841
 934.87; 9865.817;  190.150; 9433.783;-0.01984
 935.42; 9813.483;  199.483; 9431.450;-0.01761
 935.98; 9787.817;  195.483; 9388.450;-0.01847
 936.53; 9744.817;  193.817; 9335.450;-0.01903
 937.08; 9688.817;  191.150; 9347.783;-0.01588
 937.64; 9642.817;  197.817; 9356.783;-0.01336
 938.19; 9618.483;  196.483; 9425.117;-0.00901
 938.74; 9600.483;  199.817; 9340.117;-0.01220
 939.30; 9615.483;  187.150; 9339.783;-0.01289
 939.85; 9604.150;  186.483; 9209.783;-0.01858
 940.40; 9585.817;  173.817; 9251.783;-0.01569
 940.96; 9597.150;  187.150; 9238.450;-0.01688
 941.51; 9482.817;  189.483; 9244.783;-0.01127
 942.06; 9471.483;  197.150; 9160.450;-0.01481
 942.62; 9379.150;  184.817; 9036.783;-0.01648
 943.17; 9397.483;  195.150; 8966.450;-0.02083
 943.72; 9285.150;  180.483; 8903.117;-0.01862
 944.28; 9256.483;  199.483; 8795.117;-0.02271
 944.83; 9215.483;  184.150; 8766.783;-0.02213
 945.38; 9206.150;  194.483; 8735.117;-0.02332
 945.94; 9146.150;  186.483; 8804.450;-0.01689
 946.49; 9066.483;  205.150; 8772.783;-0.01464
 947.04; 8953.483;  208.817; 8738.117;-0.01083
 947.60; 8845.483;  215.150; 8638.117;-0.01056
 948.15; 8794.817;  203.483; 8519.117;-0.01417
 948.70; 8739.483;  212.817; 8413.783;-0.01691
 949.25; 8627.150;  206.150; 8325.117;-0.01586
 949.81; 8458.817;  208.817; 8271.117;-0.00999
 950.36; 8360.817;  198.483; 8157.117;-0.01098
 950.91; 8268.150;  207.150; 8037.783;-0.01259
 951.46; 8155.150;  203.817; 7873.117;-0.01568
 952.02; 8013.483;  207.150; 7734.117;-0.01583
 952.57; 7878.483;  207.150; 7606.450;-0.01568
 953.12; 7783.483;  218.483; 7526.117;-0.01503
 953.67; 7650.483;  218.150; 7443.783;-0.01225
 954.23; 7560.150;  215.817; 7359.450;-0.01203
 954.78; 7451.150;  208.150; 7234.450;-0.01319
 955.33; 7353.817;  218.150; 7119.783;-0.01448
 955.88; 7198.817;  217.150; 6980.117;-0.01382
 956.44; 7121.150;  230.483; 6838.450;-0.01819
 956.99; 7063.817;  228.817; 6737.117;-0.02127
 957.54; 7052.817;  223.817; 6672.783;-0.02487
 958.09; 6993.483;  222.150; 6636.783;-0.02350
 958.64; 6898.150;  206.817; 6607.450;-0.01929
 959.20; 6823.817;  203.483; 6532.450;-0.01955
 959.75; 6723.817;  199.817; 6496.450;-0.01541
 960.30; 6710.150;  218.150; 6441.783;-0.01833
 960.85; 6733.150;  225.150; 6424.450;-0.02110
 961.40; 6789.483;  228.817; 6381.117;-0.02791
 961.95; 6801.817;  231.817; 6360.783;-0.03018
 962.51; 6748.483;  239.483; 6360.117;-0.02672
 963.06; 6780.817;  242.817; 6380.117;-0.02747
 963.61; 6703.483;  234.150; 6314.783;-0.02691
 964.16; 6724.483;  235.150; 6258.450;-0.03237
 964.71; 6674.150;  222.483; 6212.117;-0.03227
 965.26; 6711.483;  213.150; 6253.117;-0.03177
 965.81; 6686.150;  210.817; 6289.117;-0.02748
 966.36; 6638.150;  208.483; 6323.783;-0.02177
 966.92; 6616.817;  216.150; 6305.117;-0.02168
 967.47; 6633.817;  218.483; 6338.117;-0.02049
 968.02; 6672.483;  232.483; 6354.117;-0.02202
 968.57; 6713.817;  234.817; 6375.450;-0.02329
 969.12; 6739.150;  219.817; 6368.783;-0.02540
 969.67; 6754.483;  204.483; 6420.783;-0.02271
 970.22; 6852.150;  194.150; 6469.783;-0.02569
 970.77; 6911.483;  199.817; 6539.117;-0.02479
 971.32; 7011.483;  197.483; 6593.117;-0.02752
 971.87; 7056.150;  198.817; 6693.117;-0.02362
 972.42; 7146.483;  215.150; 6793.117;-0.02273
 972.98; 7207.150;  220.817; 6908.783;-0.01896
 973.53; 7271.483;  231.483; 6996.117;-0.01733
 974.08; 7351.483;  215.483; 7040.450;-0.01935
 974.63; 7455.817;  223.483; 7078.450;-0.02327
 975.18; 7497.817;  218.483; 7103.117;-0.02421
 975.73; 7502.817;  224.817; 7157.450;-0.02111
 976.28; 7533.150;  221.483; 7219.117;-0.01907
 976.83; 7573.817;  221.483; 7315.450;-0.01554
 977.38; 7651.150;  219.483; 7373.783;-0.01652
 977.93; 7656.817;  222.150; 7387.450;-0.01603
 978.48; 7713.817;  228.483; 7365.783;-0.02068
 979.03; 7721.817;  234.817; 7358.117;-0.02163
 979.58; 7679.483;  221.483; 7329.117;-0.02090
 980.13; 7686.150;  207.150; 7367.783;-0.01889
 980.68; 7588.817;  186.483; 7310.450;-0.01665
 981.23; 7563.150;  185.817; 7278.117;-0.01711
 981.78; 7511.817;  207.150; 7207.450;-0.01848
 982.33; 7542.150;  219.150; 7257.117;-0.01724
 982.88; 7564.150;  232.483; 7211.783;-0.02139
 983.43; 7520.817;  218.150; 7145.783;-0.02290
 983.98; 7428.483;  215.150; 6984.117;-0.02761
 984.53; 7326.150;  203.817; 6873.450;-0.02852
 985.08; 7206.817;  209.817; 6835.783;-0.02366
 985.63; 7147.817;  211.150; 6787.117;-0.02319
 986.18; 7038.817;  218.817; 6756.783;-0.01834
 986.73; 6991.150;  218.483; 6610.450;-0.02513
 987.27; 6906.150;  227.483; 6521.117;-0.02579
 987.82; 6834.483;  238.483; 6431.783;-0.02736
 988.37; 6811.817;  243.150; 6400.783;-0.02806
 988.92; 6773.150;  234.150; 6351.117;-0.02898
 989.47; 6696.817;  214.483; 6285.117;-0.02850
 990.02; 6519.483;  208.483; 6199.117;-0.02263
 990.57; 6356.483;  208.150; 6083.117;-0.01975
 991.12; 6267.150;  215.150; 6044.450;-0.01628
 991.67; 6215.817;  213.817; 5969.117;-0.01823
 992.22; 6179.483;  200.483; 5915.450;-0.01961
 992.77; 6156.817;  200.150; 5802.450;-0.02664
 993.31; 6054.150;  204.817; 5735.783;-0.02431
 993.86; 5934.817;  230.483; 5683.783;-0.01955
 994.41; 5819.817;  235.150; 5580.117;-0.01905
 994.96; 5694.817;  226.483; 5473.117;-0.01797
 995.51; 5625.483;  218.817; 5377.783;-0.02037
 996.06; 5514.150;  208.483; 5293.783;-0.01842
 996.61; 5444.483;  222.483; 5201.783;-0.02067
 997.15; 5315.150;  236.150; 5083.450;-0.02028
 997.70; 5174.483;  241.150; 4965.117;-0.01883
 998.25; 5075.150;  247.483; 4873.450;-0.01853
 998.80; 4945.483;  248.483; 4740.117;-0.01942
 999.35; 4845.483;  249.483; 4623.450;-0.02150
 999.90; 4659.483;  236.150; 4455.117;-0.02054
1000.44; 4492.483;  224.483; 4340.450;-0.01575
1000.99; 4346.150;  232.483; 4190.783;-0.01672
1001.54; 4215.483;  237.150; 4067.450;-0.01647
1002.09; 4082.150;  231.817; 3939.117;-0.01644
1002.64; 3975.150;  238.483; 3855.450;-0.01414
1003.18; 3918.817;  240.483; 3766.783;-0.01833
1003.73; 3875.483;  238.483; 3661.450;-0.02634
1004.28; 3756.150;  226.817; 3584.450;-0.02166
1004.83; 3628.150;  209.483; 3488.117;-0.01816
1005.38; 3558.150;  210.150; 3420.783;-0.01819
1005.92; 3517.150;  219.150; 3321.783;-0.02652
1006.47; 3464.817;  236.817; 3231.783;-0.03254
1007.02; 3372.483;  235.483; 3140.117;-0.03342
1007.57; 3273.150;  222.817; 3087.450;-0.02728
1008.11; 3182.150;  211.817; 3028.450;-0.02307
1008.66; 3112.817;  205.150; 2973.450;-0.02133
1009.21; 3035.483;  192.483; 2907.783;-0.01996
1009.75; 2962.150;  177.817; 2862.117;-0.01589
1010.30; 2883.150;  170.150; 2793.117;-0.01466
1010.85; 2825.483;  176.817; 2712.783;-0.01888
1011.40; 2771.483;  204.150; 2628.450;-0.02490
1011.94; 2687.483;  221.817; 2545.783;-0.02570
1012.49; 2573.483;  216.483; 2464.450;-0.02057
1013.04; 2479.817;  194.150; 2362.117;-0.02296
1013.58; 2411.150;  184.150; 2325.117;-0.01711
1014.13; 2374.817;  188.483; 2268.117;-0.02173
1014.68; 2320.150;  196.483; 2233.450;-0.01810
1015.23; 2275.150;  203.150; 2181.450;-0.02010
1015.77; 2186.483;  199.817; 2113.117;-0.01634
1016.32; 2156.817;  204.817; 2072.450;-0.01919
1016.87; 2105.817;  209.483; 2012.783;-0.02185
1017.41; 2076.483;  206.817; 1977.450;-0.02364
1017.96; 2014.150;  194.817; 1953.450;-0.01474
1018.50; 1963.150;  186.483; 1926.450;-0.00907
1019.05; 1915.483;  188.483; 1903.450;-0.00304
1019.60; 1851.150;  182.817; 1815.783;-0.00931
1020.14; 1801.150;  196.150; 1752.783;-0.01329
1020.69; 1768.150;  196.150; 1698.117;-0.01979
1021.24; 1715.483;  209.483; 1650.450;-0.01917
1021.78; 1667.150;  188.483; 1620.450;-0.01394
1022.33; 1634.150;  190.150; 1592.450;-0.01273
1022.87; 1617.817;  182.817; 1587.783;-0.00919
1023.42; 1578.483;  198.150; 1567.117;-0.00359
1023.97; 1551.483;  200.150; 1516.117;-0.01152
1024.51; 1508.483;  212.150; 1465.117;-0.01478
1025.06; 1476.817;  200.483; 1401.117;-0.02655
1025.60; 1412.150;  198.817; 1340.783;-0.02633
1026.15; 1381.150;  181.150; 1307.783;-0.02740
1026.70; 1361.483;  185.483; 1284.783;-0.02929
1027.24; 1361.150;  195.483; 1279.783;-0.03142
1027.79; 1325.483;  200.483; 1270.450;-0.02178
1028.33; 1287.150;  197.483; 1252.450;-0.01405
1028.88; 1248.483;  188.817; 1215.450;-0.01375
1029.42; 1243.817;  208.150; 1198.450;-0.01945
1029.97; 1210.483;  197.817; 1156.450;-0.02381
1030.51; 1181.817;  190.150; 1127.117;-0.02464
1031.06; 1167.483;  182.817; 1088.783;-0.03618
1031.61; 1146.150;  192.483; 1063.117;-0.03956
1032.15; 1132.483;  210.150; 1050.450;-0.04045
1032.70; 1085.150;  202.817; 1024.117;-0.03113
1033.24; 1061.483;  206.483; 1018.117;-0.02261
1033.79; 1037.150;  200.817; 1020.450;-0.00876
1034.33; 1027.150;  199.817; 1016.450;-0.00565
1034.88; 1011.483;  201.817; 1008.783;-0.00145
1035.42;  995.817;  202.817;  979.450;-0.00906
1035.97;  979.817;  204.483;  950.450;-0.01677
1036.51;  993.817;  206.483;  931.450;-0.03584
1037.06;  998.817;  200.817;  944.117;-0.03084
1037.60; 1001.817;  207.150;  948.783;-0.03000
1038.14;  977.150;  204.150;  928.783;-0.02806
1038.69;  967.150;  222.150;  927.783;-0.02358
1039.23;  968.817;  234.483;  935.783;-0.01999
1039.78;  984.817;  235.150;  948.783;-0.02139
1040.32;  962.817;  224.483;  915.783;-0.02859
1040.87;  925.817;  208.483;  887.117;-0.02409
1041.41;  909.483;  198.150;  864.117;-0.02862
1041.96;  903.817;  200.817;  882.783;-0.01319
1042.50;  920.483;  197.817;  893.117;-0.01677
1043.04;  921.483;  213.817;  899.117;-0.01395
1043.59;  922.817;  217.150;  867.450;-0.03549
1044.13;  906.483;  212.483;  869.450;-0.02382
1044.68;  876.150;  205.817;  862.117;-0.00919
1045.22;  865.150;  199.150;  873.783; 0.00559
1045.76;  844.483;  201.817;  869.450; 0.01655
1046.31;  835.150;  193.483;  861.783; 0.01766
1046.85;  827.817;  200.483;  842.117; 0.00979
1047.40;  823.817;  202.483;  813.783;-0.00707
1047.94;  828.483;  215.150;  808.783;-0.01418
1048.48;  831.483;  211.150;  810.117;-0.01522
1049.03;  830.150;  214.483;  793.450;-0.02669
1049.57;  839.150;  229.150;  787.117;-0.03872
1050.11;  816.483;  222.817;  774.117;-0.03215
1050.66;  800.150;  218.483;  779.117;-0.01600
1051.20;  783.483;  206.483;  794.450; 0.00818
1051.74;  780.150;  200.817;  788.117; 0.00593
1052.29;  764.150;  200.150;  780.783; 0.01262
1052.83;  752.817;  199.150;  748.117;-0.00370
1053.37;  770.483;  224.817;  744.783;-0.02095
1053.92;  774.150;  234.150;  739.783;-0.02856
1054.46;  768.483;  236.483;  734.117;-0.02900
1055.00;  754.483;  231.483;  739.117;-0.01295
1055.55;  764.817;  230.817;  738.117;-0.02228
1056.09;  762.483;  223.817;  747.783;-0.01202
1056.63;  746.483;  215.817;  711.783;-0.02937
1057.17;  740.817;  216.483;  709.117;-0.02708
1057.72;  733.817;  225.150;  697.450;-0.03222
1058.26;  726.150;  223.483;  705.783;-0.01796
1058.80;  704.483;  229.817;  700.450;-0.00371
1059.35;  697.150;  230.483;  686.450;-0.01007
1059.89;  663.150;  230.150;  672.450; 0.00923
1060.43;  659.483;  227.817;  654.783;-0.00475
1060.97;  656.817;  223.817;  667.117; 0.01021
1061.52;  693.150;  231.150;  682.450;-0.01018
1062.06;  697.483;  231.483;  671.450;-0.02497
1062.60;  676.483;  236.483;  658.450;-0.01817
1063.14;  664.150;  232.483;  640.783;-0.02417
1063.69;  652.817;  216.483;  640.117;-0.01283
1064.23;  641.817;  208.817;  619.783;-0.02268
1064.77;  621.817;  200.483;  598.450;-0.02478
1065.31;  613.483;  201.817;  577.450;-0.03978
1065.85;  618.483;  206.483;  567.117;-0.05783
1066.40;  620.817;  205.150;  579.450;-0.04553
1066.94;  619.817;  217.817;  579.117;-0.04636
1067.48;  625.817;  209.150;  587.783;-0.04157
1068.02;  611.150;  233.817;  562.450;-0.06001
1068.56;  613.150;  216.817;  564.783;-0.05652
1069.10;  568.483;  212.817;  549.783;-0.02346
1069.65;  585.817;  195.817;  566.450;-0.02212
1070.19;  564.150;  208.817;  566.783; 0.00321
1070.73;  587.483;  223.817;  582.783;-0.00565
1071.27;  577.150;  215.817;  567.117;-0.01223
1071.81;  566.150;  207.150;  562.117;-0.00491
1072.35;  574.150;  201.817;  549.117;-0.03023
1072.90;  548.150;  197.150;  546.783;-0.00169
1073.44;  557.150;  202.817;  540.117;-0.02140
1073.98;  533.817;  206.150;  531.450;-0.00315
1074.52;  538.150;  224.483;  538.783; 0.00088
1075.06;  539.483;  218.483;  542.450; 0.00400
1075.60;  525.817;  207.483;  531.450; 0.00762
1076.14;  520.483;  204.817;  514.117;-0.00885
1076.68;  506.817;  207.150;  504.450;-0.00344
1077.22;  537.817;  225.817;  504.783;-0.04860
1077.76;  539.817;  214.817;  498.117;-0.05964
1078.31;  531.483;  229.817;  499.783;-0.04822
1078.85;  515.483;  226.483;  517.117; 0.00245
1079.39;  521.817;  243.817;  525.450; 0.00564
1079.93;  532.817;  237.817;  507.783;-0.03851
1080.47;  515.150;  227.483;  476.450;-0.06275
1081.01;  511.150;  216.150;  474.783;-0.05714
1081.55;  501.817;  208.483;  488.783;-0.01974
1082.09;  504.817;  205.817;  488.783;-0.02394
1082.63;  492.817;  210.150;  496.450; 0.00555
1083.17;  500.483;  221.150;  500.783; 0.00047
1083.71;  506.483;  228.817;  501.450;-0.00794
1084.25;  504.483;  224.483;  471.117;-0.05511
1084.79;  484.150;  214.483;  446.450;-0.06540
1085.33;  475.483;  202.817;  450.783;-0.04124
1085.87;  482.817;  199.483;  468.450;-0.02260
1086.41;  491.817;  214.483;  471.450;-0.03313
1086.95;  492.150;  222.150;  467.117;-0.04226
1087.49;  479.817;  225.817;  454.783;-0.04506
1088.03;  479.483;  216.817;  454.117;-0.04411
1088.57;  474.483;  219.817;  450.783;-0.04242
1089.11;  462.483;  222.150;  448.117;-0.02677
1089.65;  471.150;  233.150;  458.783;-0.02317
1090.19;  458.483;  238.483;  468.117; 0.01861
1090.73;  464.817;  240.483;  471.783; 0.01328
1091.27;  455.150;  238.817;  466.117; 0.02148
1091.81;  461.817;  238.483;  458.117;-0.00726
1092.35;  460.817;  247.483;  461.450; 0.00129
1092.89;  457.817;  232.150;  457.450;-0.00071
1093.43;  447.483;  223.817;  445.783;-0.00331
1093.97;  440.817;  210.150;  441.117; 0.00056
1094.51;  434.150;  208.483;  440.450; 0.01196
1095.04;  448.483;  218.483;  442.783;-0.01090
1095.58;  452.817;  238.817;  436.783;-0.03382
1096.12;  466.817;  242.817;  428.783;-0.08081
1096.66;  474.150;  239.817;  430.450;-0.08964
1097.20;  468.817;  235.817;  449.450;-0.03769
1097.74;  475.483;  246.817;  456.783;-0.03705
1098.28;  457.483;  235.817;  457.117;-0.00072
1098.82;  471.150;  230.483;  453.117;-0.03383
1099.36;  443.483;  228.150;  446.450; 0.00594
1099.89;  441.483;  230.150;  447.450; 0.01209

