
Integration time [ms]:   0.300
Averaging Nr. [scans]: 1
Smoothing Nr. [pixels]: 1
Data measured with spectrometer [name]: 1906252U1
Wave   ;Sample   ;Dark     ;Reference;Absorbance
[nm]   ;[counts] ;[counts] ;[counts] ;[A.U]

 161.30;  282.540;  271.207;  271.637; 0.00000
 161.90;  257.917;  265.524;  261.712; 0.00000
 162.51;  256.626;  259.038;  260.433; 5.00000
 163.11;  264.034;  265.693;  251.834; 0.00000
 163.71;  274.000;  276.696;  266.803; 0.00000
 164.31;  268.676;  294.270;  273.488; 0.00000
 164.91;  278.937;  288.393;  287.410; 0.00000
 165.52;  271.465;  277.299;  279.261; 5.00000
 166.12;  283.937;  271.979;  273.718;-0.83753
 166.72;  272.977;  272.971;  259.755; 0.00000
 167.32;  284.926;  271.656;  271.040; 0.00000
 167.93;  273.414;  261.266;  267.518;-0.28849
 168.53;  267.854;  254.112;  260.296;-0.34680
 169.13;  265.146;  264.427;  257.261; 0.00000
 169.73;  257.570;  271.677;  266.351; 0.00000
 170.33;  282.720;  291.614;  320.561; 5.00000
 170.94;  294.457;  317.756;  347.746; 5.00000
 171.54;  316.875;  335.278;  387.239; 5.00000
 172.14;  333.834;  338.926;  375.538; 5.00000
 172.74;  345.819;  324.358;  373.181; 0.35696
 173.34;  351.869;  319.589;  355.569; 0.04713
 173.95;  338.225;  309.596;  343.923; 0.07882
 174.55;  342.864;  318.289;  355.228; 0.17699
 175.15;  359.457;  320.689;  367.155; 0.07866
 175.75;  362.170;  322.370;  380.195; 0.16223
 176.35;  358.664;  332.415;  382.036; 0.27654
 176.95;  349.186;  327.740;  392.907; 0.48267
 177.56;  341.299;  327.608;  398.355; 0.71329
 178.16;  333.917;  316.738;  399.298; 0.68178
 178.76;  317.450;  316.306;  398.487; 1.85634
 179.36;  330.317;  310.874;  401.343; 0.66775
 179.96;  334.793;  304.800;  395.813; 0.48208
 180.56;  362.611;  308.938;  392.969; 0.19468
 181.17;  359.077;  318.009;  403.448; 0.31815
 181.77;  359.471;  318.897;  417.181; 0.38423
 182.37;  346.071;  306.653;  404.111; 0.39313
 182.97;  361.749;  319.309;  413.789; 0.34757
 183.57;  381.908;  323.525;  427.944; 0.25250
 184.17;  408.073;  336.736;  473.104; 0.28140
 184.78;  431.893;  316.624;  484.587; 0.16350
 185.38;  441.802;  315.012;  504.833; 0.17526
 185.98;  464.596;  315.783;  504.638; 0.10349
 186.58;  463.069;  316.598;  510.449; 0.12172
 187.18;  479.628;  313.002;  491.678; 0.03032
 187.78;  488.350;  324.256;  526.070; 0.08986
 188.38;  499.774;  331.840;  541.159; 0.09567
 188.98;  483.814;  337.804;  574.199; 0.20925
 189.59;  482.489;  332.575;  567.529; 0.19514
 190.19;  478.685;  326.870;  580.708; 0.22324
 190.79;  496.242;  326.914;  573.939; 0.16401
 191.39;  486.246;  317.159;  564.285; 0.16481
 191.99;  484.666;  322.498;  545.363; 0.13807
 192.59;  474.571;  317.307;  539.929; 0.15094
 193.19;  462.010;  313.765;  525.712; 0.15525
 193.79;  456.240;  325.164;  530.280; 0.19447
 194.39;  443.634;  328.250;  517.658; 0.21525
 195.00;  440.461;  327.216;  511.139; 0.21062
 195.60;  429.048;  305.566;  480.732; 0.15185
 196.20;  415.114;  304.088;  469.473; 0.17307
 196.80;  401.634;  305.278;  453.989; 0.18846
 197.40;  382.158;  313.686;  455.186; 0.31524
 198.00;  377.089;  320.693;  452.457; 0.36855
 198.60;  365.249;  317.270;  442.943; 0.41819
 199.20;  357.827;  312.435;  427.513; 0.40402
 199.80;  356.745;  303.957;  416.753; 0.32976
 200.40;  345.190;  299.492;  396.868; 0.32855
 201.00;  344.414;  293.841;  371.434; 0.18590
 201.60;  333.046;  292.845;  340.403; 0.07298
 202.21;  335.215;  298.995;  352.240; 0.16733
 202.81;  334.534;  303.760;  367.883; 0.31883
 203.41;  329.248;  301.801;  377.921; 0.44301
 204.01;  319.604;  296.447;  373.611; 0.52274
 204.61;  315.130;  287.965;  374.799; 0.50468
 205.21;  315.336;  280.528;  391.328; 0.50286
 205.81;  324.247;  276.000;  394.567; 0.39049
 206.41;  332.008;  281.190;  389.667; 0.32931
 207.01;  325.514;  291.585;  373.516; 0.38287
 207.61;  305.880;  290.832;  349.221; 0.58885
 208.21;  293.085;  294.007;  340.088; 5.00000
 208.81;  289.045;  285.376;  350.048; 1.24617
 209.41;  294.273;  292.971;  355.294; 1.68001
 210.01;  294.134;  286.985;  361.835; 1.01991
 210.61;  307.960;  290.534;  351.990; 0.54736
 211.21;  310.533;  293.399;  356.219; 0.56423
 211.81;  317.587;  300.157;  352.258; 0.47554
 212.41;  304.508;  301.896;  344.513; 1.21262
 213.01;  304.273;  296.332;  351.625; 0.84276
 213.61;  279.985;  285.263;  357.339; 5.00000
 214.21;  295.733;  282.939;  368.411; 0.82484
 214.81;  294.051;  278.704;  361.387; 0.73141
 215.41;  323.311;  282.466;  362.645; 0.29292
 216.01;  316.520;  278.247;  362.189; 0.34108
 216.61;  315.784;  287.920;  357.792; 0.39926
 217.21;  302.376;  290.599;  357.391; 0.75370
 217.81;  310.789;  297.221;  367.800; 0.71615
 218.41;  334.406;  301.628;  379.081; 0.37346
 219.01;  342.822;  307.801;  388.505; 0.36257
 219.61;  327.556;  301.739;  384.906; 0.50804
 220.21;  301.169;  297.568;  378.507; 1.35172
 220.81;  292.379;  283.737;  372.713; 1.01266
 221.41;  315.357;  284.091;  376.024; 0.46841
 222.01;  319.719;  280.426;  372.049; 0.36769
 222.61;  313.112;  298.953;  367.451; 0.68463
 223.21;  296.414;  301.813;  357.103; 5.00000
 223.81;  308.991;  301.952;  360.676; 0.92128
 224.41;  306.957;  281.875;  343.618; 0.39124
 225.01;  297.264;  269.317;  340.250; 0.40452
 225.61;  283.035;  274.108;  341.033; 0.87489
 226.21;  294.908;  273.112;  349.918; 0.54702
 226.81;  289.161;  286.490;  349.175; 1.37048
 227.41;  306.269;  284.059;  344.282; 0.43321
 228.01;  321.904;  302.172;  351.241; 0.39565
 228.61;  344.483;  306.727;  360.474; 0.15336
 229.21;  329.709;  303.825;  362.700; 0.35691
 229.81;  315.458;  308.998;  372.791; 0.99451
 230.41;  316.396;  299.055;  383.396; 0.68696
 231.01;  329.271;  300.808;  405.942; 0.56746
 231.61;  321.757;  287.307;  401.095; 0.51892
 232.21;  316.826;  300.328;  383.489; 0.70248
 232.81;  306.608;  296.307;  370.928; 0.85997
 233.41;  313.676;  302.578;  372.995; 0.80243
 234.00;  317.923;  298.240;  379.918; 0.61802
 234.60;  322.955;  290.487;  363.623; 0.35267
 235.20;  324.260;  295.152;  359.264; 0.34293
 235.80;  323.429;  295.330;  365.432; 0.39703
 236.40;  320.380;  302.765;  379.044; 0.63652
 237.00;  311.485;  303.584;  384.824; 1.01204
 237.60;  295.969;  294.000;  377.651; 1.62821
 238.20;  301.534;  295.121;  389.214; 1.16646
 238.80;  302.001;  274.112;  389.668; 0.61736
 239.40;  320.416;  279.177;  403.402; 0.47890
 240.00;  321.654;  284.599;  402.640; 0.50319
 240.59;  329.311;  298.133;  401.312; 0.51974
 241.19;  328.740;  297.989;  399.745; 0.51971
 241.79;  331.379;  288.710;  384.715; 0.35218
 242.39;  330.244;  292.222;  383.909; 0.38228
 242.99;  323.119;  286.642;  375.121; 0.38483
 243.59;  302.416;  289.230;  388.763; 0.87786
 244.19;  288.553;  286.160;  385.560; 1.61857
 244.79;  301.324;  287.511;  384.652; 0.84711
 245.39;  319.228;  287.293;  395.554; 0.53020
 245.98;  329.126;  273.053;  391.453; 0.32460
 246.58;  322.622;  274.487;  389.290; 0.37749
 247.18;  326.355;  285.342;  384.364; 0.38281
 247.78;  335.091;  295.696;  398.758; 0.41765
 248.38;  332.165;  288.656;  421.162; 0.48365
 248.98;  322.642;  277.356;  419.988; 0.49825
 249.58;  315.326;  265.673;  430.671; 0.52154
 250.17;  321.176;  275.285;  426.842; 0.51884
 250.77;  322.967;  283.143;  431.967; 0.57253
 251.37;  318.077;  286.929;  425.089; 0.64695
 251.97;  315.469;  270.293;  429.805; 0.54789
 252.57;  322.889;  265.298;  436.882; 0.47412
 253.17;  325.836;  272.929;  449.172; 0.52259
 253.77;  331.284;  284.186;  466.282; 0.58730
 254.36;  330.789;  295.474;  468.774; 0.69084
 254.96;  340.913;  295.333;  480.567; 0.60894
 255.56;  329.315;  288.604;  484.301; 0.68188
 256.16;  318.198;  278.462;  506.509; 0.75885
 256.76;  297.796;  277.524;  496.109; 1.03272
 257.36;  309.961;  276.735;  508.603; 0.84376
 257.95;  319.075;  264.992;  503.713; 0.64483
 258.55;  337.441;  264.239;  518.084; 0.54005
 259.15;  333.148;  260.564;  510.454; 0.53691
 259.75;  345.357;  269.345;  523.998; 0.52507
 260.35;  332.650;  267.461;  538.318; 0.61856
 260.94;  326.408;  268.819;  539.764; 0.67254
 261.54;  321.421;  275.530;  547.771; 0.77323
 262.14;  327.425;  279.723;  553.422; 0.75874
 262.74;  341.852;  296.084;  592.169; 0.81086
 263.34;  336.614;  285.302;  604.600; 0.79398
 263.93;  336.220;  271.414;  619.201; 0.72970
 264.53;  343.135;  269.158;  628.783; 0.68676
 265.13;  338.573;  270.950;  628.566; 0.72332
 265.73;  345.478;  275.426;  648.466; 0.72633
 266.33;  350.751;  278.566;  678.397; 0.74343
 266.92;  339.702;  275.029;  689.673; 0.80695
 267.52;  341.086;  279.954;  705.726; 0.84291
 268.12;  329.625;  273.264;  717.281; 0.89642
 268.72;  343.176;  281.951;  749.175; 0.88260
 269.31;  343.503;  293.596;  782.505; 0.99106
 269.91;  329.025;  296.813;  783.686; 1.17941
 270.51;  332.101;  298.884;  823.747; 1.19868
 271.11;  339.047;  296.018;  844.685; 1.10555
 271.70;  344.706;  281.274;  877.686; 0.97324
 272.30;  356.595;  270.568;  887.924; 0.85590
 272.90;  356.754;  264.784;  909.412; 0.84566
 273.50;  368.876;  274.785;  916.521; 0.83381
 274.09;  359.552;  285.359;  947.539; 0.95061
 274.69;  352.690;  293.425;  961.690; 1.05215
 275.29;  346.047;  297.126; 1011.041; 1.16415
 275.89;  349.526;  301.162; 1057.168; 1.19400
 276.48;  367.405;  306.441; 1108.365; 1.11906
 277.08;  371.046;  303.217; 1149.330; 1.09601
 277.68;  379.637;  300.562; 1156.928; 1.03462
 278.28;  370.108;  297.934; 1188.748; 1.09140
 278.87;  383.238;  305.120; 1219.213; 1.06824
 279.47;  391.720;  316.402; 1279.019; 1.10655
 280.07;  405.907;  311.564; 1306.537; 1.02310
 280.66;  418.839;  305.599; 1329.806; 0.95639
 281.26;  436.642;  299.502; 1356.605; 0.88695
 281.86;  454.502;  299.353; 1408.460; 0.85423
 282.46;  455.037;  289.111; 1464.667; 0.85033
 283.05;  471.553;  270.001; 1525.842; 0.79455
 283.65;  494.293;  269.267; 1577.248; 0.76437
 284.25;  514.721;  276.537; 1628.707; 0.75412
 284.84;  512.487;  297.639; 1660.819; 0.80242
 285.44;  518.033;  304.585; 1722.349; 0.82231
 286.04;  550.321;  306.626; 1767.304; 0.77771
 286.63;  564.889;  299.604; 1827.551; 0.76040
 287.23;  586.590;  285.934; 1878.582; 0.72405
 287.83;  586.988;  285.987; 1956.635; 0.74432
 288.42;  601.155;  282.947; 2012.456; 0.73521
 289.02;  613.047;  281.018; 2081.351; 0.73418
 289.62;  624.048;  274.153; 2105.373; 0.71880
 290.21;  664.556;  278.965; 2173.882; 0.69146
 290.81;  679.520;  296.139; 2171.832; 0.68953
 291.41;  688.299;  301.675; 2217.279; 0.69502
 292.00;  706.943;  287.695; 2273.257; 0.67541
 292.60;  752.934;  266.816; 2355.570; 0.63315
 293.20;  791.978;  269.053; 2441.953; 0.61860
 293.79;  806.218;  275.331; 2498.541; 0.62198
 294.39;  811.131;  284.326; 2544.463; 0.63249
 294.99;  816.771;  280.435; 2588.095; 0.63373
 295.58;  838.650;  284.687; 2619.961; 0.62486
 296.18;  845.927;  271.100; 2672.236; 0.62088
 296.78;  896.549;  267.474; 2741.524; 0.59471
 297.37;  924.932;  256.039; 2819.912; 0.58354
 297.97;  989.463;  255.858; 2927.442; 0.56131
 298.57; 1026.242;  262.727; 2989.557; 0.55284
 299.16; 1074.126;  278.359; 3083.789; 0.54721
 299.76; 1068.035;  281.775; 3176.366; 0.56602
 300.35; 1097.710;  281.214; 3269.362; 0.56345
 300.95; 1108.472;  278.404; 3324.462; 0.56462
 301.55; 1183.508;  287.229; 3346.846; 0.53322
 302.14; 1219.687;  278.314; 3431.366; 0.52497
 302.74; 1261.518;  277.164; 3537.862; 0.52016
 303.33; 1287.570;  277.506; 3665.575; 0.52560
 303.93; 1350.941;  284.053; 3763.621; 0.51341
 304.53; 1410.059;  290.889; 3809.743; 0.49751
 305.12; 1462.728;  285.666; 3889.067; 0.48591
 305.72; 1487.746;  304.345; 3962.749; 0.49016
 306.31; 1517.151;  292.556; 4062.826; 0.48838
 306.91; 1572.897;  290.122; 4183.574; 0.48218
 307.51; 1621.395;  280.000; 4278.734; 0.47437
 308.10; 1674.045;  295.710; 4394.048; 0.47325
 308.70; 1716.397;  291.190; 4468.751; 0.46704
 309.29; 1750.122;  287.634; 4547.826; 0.46434
 309.89; 1790.984;  264.902; 4638.675; 0.45728
 310.48; 1818.751;  273.673; 4739.754; 0.46098
 311.08; 1896.446;  268.620; 4876.118; 0.45186
 311.68; 1939.697;  273.221; 4959.384; 0.44902
 312.27; 2010.929;  278.703; 5074.278; 0.44224
 312.87; 2051.507;  271.869; 5225.848; 0.44462
 313.46; 2127.338;  276.691; 5385.013; 0.44095
 314.06; 2174.881;  276.193; 5529.885; 0.44201
 314.65; 2208.894;  282.238; 5632.559; 0.44358
 315.25; 2244.262;  283.262; 5774.255; 0.44717
 315.85; 2275.217;  277.637; 5914.876; 0.45056
 316.44; 2334.613;  287.913; 6071.938; 0.45118
 317.04; 2412.665;  295.255; 6216.984; 0.44664
 317.63; 2515.680;  310.823; 6400.341; 0.44120
 318.23; 2597.287;  298.737; 6546.296; 0.43426
 318.82; 2669.882;  293.221; 6674.883; 0.42897
 319.42; 2731.550;  273.276; 6781.545; 0.42284
 320.01; 2791.970;  280.055; 6929.646; 0.42279
 320.61; 2882.324;  290.511; 7164.652; 0.42361
 321.20; 2973.301;  285.758; 7272.939; 0.41495
 321.80; 3032.066;  292.860; 7497.718; 0.42000
 322.39; 3071.529;  275.154; 7636.540; 0.42036
 322.99; 3113.206;  275.755; 7857.556; 0.42684
 323.58; 3217.532;  286.597; 7977.531; 0.41897
 324.18; 3289.354;  287.901; 8124.673; 0.41681
 324.77; 3358.019;  292.485; 8318.013; 0.41797
 325.37; 3397.838;  278.984; 8442.167; 0.41786
 325.96; 3475.636;  276.253; 8588.958; 0.41468
 326.56; 3590.438;  298.768; 8771.095; 0.41059
 327.15; 3690.781;  300.036; 8947.778; 0.40661
 327.75; 3768.871;  300.925; 9129.536; 0.40582
 328.34; 3767.518;  272.723; 9291.838; 0.41174
 328.94; 3815.927;  266.072; 9447.905; 0.41272
 329.53; 3877.898;  277.765; 9658.876; 0.41594
 330.13; 3978.139;  293.098; 9872.460; 0.41489
 330.72; 4052.229;  297.428;10112.576; 0.41731
 331.32; 4186.724;  296.807;10347.750; 0.41227
 331.91; 4314.706;  286.021;10578.045; 0.40734
 332.51; 4447.112;  290.846;10832.428; 0.40420
 333.10; 4467.372;  280.941;11112.686; 0.41285
 333.69; 4527.219;  268.720;11343.870; 0.41509
 334.29; 4541.317;  259.020;11372.294; 0.41417
 334.88; 4590.251;  263.526;11404.218; 0.41075
 335.48; 4580.204;  274.151;11347.513; 0.41020
 336.07; 4617.062;  277.361;11521.065; 0.41345
 336.67; 4661.436;  271.793;11561.792; 0.41026
 337.26; 4721.718;  270.478;11724.744; 0.41049
 337.86; 4773.401;  274.661;11795.073; 0.40838
 338.45; 4833.220;  285.081;11996.201; 0.41076
 339.04; 4920.734;  280.248;12122.714; 0.40688
 339.64; 4973.520;  279.247;12324.855; 0.40926
 340.23; 5021.224;  276.541;12444.594; 0.40901
 340.83; 5088.297;  283.446;12579.002; 0.40807
 341.42; 5131.752;  284.034;12728.085; 0.40942
 342.02; 5157.726;  280.810;12860.717; 0.41153
 342.61; 5167.147;  285.029;12994.842; 0.41553
 343.20; 5250.652;  280.703;13173.363; 0.41399
 343.80; 5336.153;  275.024;13326.514; 0.41141
 344.39; 5399.426;  277.525;13574.777; 0.41433
 344.99; 5428.900;  284.701;13698.586; 0.41624
 345.58; 5506.313;  281.629;13941.331; 0.41738
 346.17; 5564.597;  272.425;14086.941; 0.41670
 346.77; 5680.831;  263.601;14425.499; 0.41734
 347.36; 5741.409;  267.766;14640.403; 0.41926
 347.96; 5849.415;  271.456;14918.073; 0.41926
 348.55; 5945.080;  272.039;15018.413; 0.41487
 349.14; 6048.593;  269.152;15148.264; 0.41069
 349.74; 6133.974;  282.193;15379.635; 0.41162
 350.33; 6198.958;  292.264;15619.281; 0.41411
 350.92; 6260.424;  292.029;15990.758; 0.42001
 351.52; 6350.377;  276.988;16197.719; 0.41853
 352.11; 6438.026;  277.642;16449.038; 0.41914
 352.70; 6537.456;  293.221;16652.467; 0.41828
 353.30; 6607.017;  299.069;16923.354; 0.42085
 353.89; 6701.151;  289.556;17199.826; 0.42118
 354.49; 6799.444;  295.537;17471.125; 0.42174
 355.08; 6869.897;  303.789;17648.240; 0.42185
 355.67; 6923.869;  306.509;17850.877; 0.42345
 356.27; 6984.746;  292.678;18013.082; 0.42291
 356.86; 7076.045;  288.376;18230.048; 0.42214
 357.45; 7206.328;  297.756;18507.331; 0.42091
 358.05; 7283.618;  297.214;18684.613; 0.42027
 358.64; 7382.301;  292.504;18894.298; 0.41892
 359.23; 7416.159;  289.300;19081.825; 0.42109
 359.83; 7517.053;  289.121;19433.380; 0.42302
 360.42; 7567.266;  293.174;19722.600; 0.42668
 361.01; 7670.494;  287.355;19981.487; 0.42610
 361.61; 7752.883;  287.502;20183.522; 0.42571
 362.20; 7842.081;  294.987;20496.718; 0.42761
 362.79; 7922.647;  302.910;20634.303; 0.42623
 363.38; 7991.182;  301.613;20815.514; 0.42615
 363.98; 8076.393;  289.171;20943.715; 0.42363
 364.57; 8105.162;  277.744;21176.149; 0.42649
 365.16; 8171.497;  288.573;21351.502; 0.42683
 365.76; 8239.275;  293.720;21537.287; 0.42710
 366.35; 8307.877;  294.920;21731.542; 0.42736
 366.94; 8416.140;  286.459;21913.791; 0.42493
 367.53; 8448.811;  286.426;22067.466; 0.42626
 368.13; 8510.493;  291.994;22246.489; 0.42673
 368.72; 8512.961;  285.482;22413.295; 0.42967
 369.31; 8645.359;  292.281;22597.374; 0.42656
 369.91; 8679.188;  283.382;22746.877; 0.42741
 370.50; 8712.057;  291.699;22820.059; 0.42740
 371.09; 8705.592;  278.017;22946.909; 0.42973
 371.68; 8735.677;  286.967;23106.324; 0.43151
 372.28; 8808.597;  294.984;23340.584; 0.43247
 372.87; 8932.845;  297.367;23443.502; 0.42819
 373.46; 9077.610;  297.723;23614.255; 0.42418
 374.05; 9178.855;  287.889;23758.158; 0.42157
 374.65; 9128.525;  290.440;23950.173; 0.42765
 375.24; 9191.033;  272.918;24146.349; 0.42764
 375.83; 9246.715;  275.848;24331.370; 0.42838
 376.42; 9379.892;  273.516;24515.563; 0.42522
 377.02; 9482.163;  293.907;24527.502; 0.42118
 377.61; 9558.001;  288.112;24762.668; 0.42164
 378.20; 9618.460;  297.747;24944.118; 0.42230
 378.79; 9607.563;  297.015;25086.217; 0.42529
 379.38; 9716.796;  282.191;25204.109; 0.42186
 379.98; 9767.499;  267.243;25344.469; 0.42154
 380.57; 9882.760;  272.112;25606.751; 0.42096
 381.16; 9942.790;  291.609;25727.129; 0.42086
 381.75;10047.146;  289.589;25767.151; 0.41682
 382.35;10120.263;  283.703;25937.612; 0.41631
 382.94;10261.019;  271.231;26182.039; 0.41392
 383.53;10409.076;  279.541;26558.760; 0.41402
 384.12;10542.287;  269.432;26865.627; 0.41313
 384.71;10553.684;  284.069;27028.687; 0.41568
 385.31;10661.871;  287.699;27353.893; 0.41647
 385.90;10731.412;  299.731;27598.110; 0.41778
 386.49;10923.968;  283.306;27919.987; 0.41452
 387.08;11002.925;  296.763;28085.602; 0.41424
 387.67;11215.918;  302.047;28384.267; 0.41045
 388.26;11370.068;  312.463;28670.094; 0.40901
 388.86;11573.079;  297.866;29041.131; 0.40641
 389.45;11706.907;  285.685;29324.329; 0.40526
 390.04;11736.742;  279.860;29566.863; 0.40761
 390.63;11831.863;  284.795;29878.048; 0.40872
 391.22;11914.890;  294.422;30097.179; 0.40903
 391.81;12095.704;  303.408;30368.117; 0.40646
 392.41;12243.077;  324.211;30517.642; 0.40368
 393.00;12441.528;  349.022;30747.606; 0.40034
 393.59;12604.935;  379.676;31111.212; 0.40033
 394.18;12752.358;  399.780;31505.223; 0.40108
 394.77;12885.424;  433.703;31930.599; 0.40304
 395.36;12958.497;  473.557;32244.356; 0.40564
 395.95;13048.120;  524.323;32561.017; 0.40791
 396.55;13138.827;  566.236;32856.406; 0.40965
 397.14;13353.831;  594.577;33298.717; 0.40878
 397.73;13558.503;  601.786;33627.642; 0.40636
 398.32;13778.105;  612.294;34204.404; 0.40679
 398.91;14097.650;  621.039;34614.988; 0.40182
 399.50;14370.794;  632.059;35200.379; 0.40073
 400.09;14664.243;  605.452;35675.306; 0.39699
 400.68;14882.967;  582.293;36366.134; 0.39833
 401.27;15232.071;  548.561;37014.694; 0.39506
 401.87;15482.541;  525.771;37604.957; 0.39429
 402.46;15764.655;  501.053;38119.893; 0.39175
 403.05;15945.787;  484.389;38675.942; 0.39272
 403.64;16278.647;  490.521;39240.769; 0.38994
 404.23;16522.320;  484.797;39841.080; 0.38988
 404.82;16791.944;  502.588;40438.695; 0.38946
 405.41;17033.417;  491.629;41140.816; 0.39047
 406.00;17330.292;  497.890;41752.976; 0.38933
 406.59;17607.188;  479.966;42383.807; 0.38857
 407.18;17840.482;  482.149;42943.385; 0.38848
 407.77;18041.138;  466.520;43500.038; 0.38892
 408.37;18282.426;  484.641;43973.019; 0.38801
 408.96;18525.605;  491.806;44465.898; 0.38711
 409.55;18802.996;  504.476;44970.283; 0.38561
 410.14;19034.202;  481.626;45459.452; 0.38459
 410.73;19233.892;  490.299;45905.805; 0.38435
 411.32;19420.500;  492.855;46441.730; 0.38518
 411.91;19621.689;  505.687;47060.216; 0.38656
 412.50;19794.461;  480.732;47624.639; 0.38756
 413.09;20024.924;  484.505;48110.411; 0.38691
 413.68;20215.120;  482.467;48573.257; 0.38688
 414.27;20390.781;  487.472;48936.919; 0.38636
 414.86;20523.178;  462.470;49236.309; 0.38584
 415.45;20736.968;  452.555;49687.411; 0.38511
 416.04;20930.645;  462.743;50083.734; 0.38459
 416.63;21138.521;  468.551;50542.275; 0.38427
 417.22;21302.601;  461.867;50754.683; 0.38259
 417.81;21468.739;  462.159;51068.477; 0.38185
 418.40;21522.611;  476.694;51393.675; 0.38369
 418.99;21598.799;  477.832;51737.830; 0.38506
 419.58;21713.716;  462.218;51969.382; 0.38448
 420.17;21869.068;  452.952;52248.392; 0.38355
 420.76;22067.856;  458.593;52499.836; 0.38171
 421.35;22220.788;  472.988;53005.769; 0.38302
 421.94;22159.856;  474.287;53203.501; 0.38588
 422.53;22122.334;  469.601;53402.299; 0.38821
 423.12;22083.541;  471.552;53493.823; 0.38976
 423.71;22280.930;  463.366;53670.857; 0.38717
 424.30;22259.611;  471.573;53819.883; 0.38890
 424.89;22253.749;  477.611;53888.037; 0.38965
 425.48;22199.760;  477.854;53974.356; 0.39143
 426.07;22243.462;  465.438;53940.695; 0.39013
 426.66;22225.290;  460.097;54040.507; 0.39124
 427.25;22154.232;  453.014;53995.096; 0.39221
 427.84;22027.530;  450.549;53912.043; 0.39405
 428.43;21933.599;  452.848;53711.442; 0.39434
 429.02;21921.712;  457.772;53797.552; 0.39534
 429.61;21892.621;  448.720;53826.107; 0.39605
 430.20;21717.968;  425.820;53758.443; 0.39877
 430.79;21576.103;  437.001;53531.580; 0.39996
 431.38;21352.744;  442.471;53315.543; 0.40287
 431.97;21264.319;  451.391;53001.434; 0.40224
 432.55;21189.895;  445.807;52690.011; 0.40114
 433.14;21118.629;  441.412;52704.411; 0.40270
 433.73;20921.962;  432.971;52655.054; 0.40633
 434.32;20647.527;  424.624;52606.263; 0.41167
 434.91;20377.335;  423.161;52233.737; 0.41438
 435.50;20259.138;  418.064;51971.869; 0.41470
 436.09;20112.588;  418.432;51687.970; 0.41552
 436.68;20008.602;  422.559;51624.303; 0.41734
 437.27;19904.770;  439.214;51661.122; 0.42019
 437.86;19767.225;  433.576;51508.561; 0.42189
 438.45;19687.654;  436.794;51330.326; 0.42221
 439.04;19511.965;  419.148;51043.637; 0.42349
 439.62;19290.648;  412.025;51000.963; 0.42809
 440.21;19104.409;  413.441;50885.373; 0.43142
 440.80;18921.906;  430.263;51024.538; 0.43713
 441.39;18840.520;  449.560;51081.161; 0.43982
 441.98;18638.331;  447.874;51020.625; 0.44407
 442.57;18542.953;  436.530;50797.219; 0.44426
 443.16;18330.663;  425.660;50702.578; 0.44839
 443.75;18237.345;  431.481;50788.909; 0.45150
 444.33;18033.487;  435.018;50969.383; 0.45811
 444.92;17972.119;  440.355;50892.685; 0.45906
 445.51;17849.780;  417.614;50850.986; 0.46137
 446.10;17796.695;  410.612;51056.876; 0.46435
 446.69;17749.042;  404.712;51275.545; 0.46731
 447.28;17681.231;  420.929;51457.726; 0.47084
 447.87;17566.226;  412.657;51329.383; 0.47251
 448.45;17431.934;  413.036;51412.748; 0.47664
 449.04;17196.840;  390.874;51445.980; 0.48258
 449.63;17136.492;  386.972;51646.289; 0.48577
 450.22;17033.340;  381.501;51835.467; 0.48996
 450.81;16985.759;  386.090;52100.884; 0.49352
 451.40;16852.678;  391.666;52058.120; 0.49675
 451.98;16637.643;  398.229;52052.065; 0.50253
 452.57;16510.717;  403.856;52211.469; 0.50738
 453.16;16407.604;  401.626;52273.023; 0.51065
 453.75;16358.294;  391.994;52359.708; 0.51253
 454.34;16242.280;  388.814;52215.013; 0.51443
 454.93;16120.978;  395.232;52494.699; 0.52022
 455.51;15982.506;  391.805;52615.216; 0.52500
 456.10;15918.412;  402.670;52907.445; 0.52943
 456.69;15716.685;  396.116;53041.712; 0.53609
 457.28;15614.176;  403.304;53288.203; 0.54118
 457.87;15538.314;  395.902;53216.666; 0.54261
 458.45;15446.031;  396.108;53304.691; 0.54599
 459.04;15312.737;  388.965;53401.373; 0.55050
 459.63;15136.520;  395.666;53676.141; 0.55805
 460.22;15128.850;  396.420;53639.128; 0.55799
 460.80;15144.864;  400.600;53692.823; 0.55804
 461.39;15153.264;  392.483;53895.895; 0.55927
 461.98;15132.506;  393.792;54364.115; 0.56370
 462.57;15064.693;  398.874;54782.941; 0.56917
 463.16;15047.374;  397.668;55197.607; 0.57295
 463.74;14970.979;  387.726;55673.212; 0.57876
 464.33;14959.870;  376.102;56213.777; 0.58306
 464.92;14960.151;  370.427;56547.398; 0.58551
 465.51;14949.802;  357.831;56911.710; 0.58835
 466.09;14958.672;  358.204;57352.888; 0.59147
 466.68;14931.242;  361.518;57898.436; 0.59650
 467.27;14965.112;  372.331;58292.638; 0.59869
 467.86;14964.209;  368.243;58560.733; 0.60063
 468.44;15010.402;  363.094;58919.922; 0.60182
 469.03;15058.967;  361.882;59322.152; 0.60333
 469.62;15091.203;  367.807;59788.037; 0.60593
 470.20;15087.850;  365.300;60231.337; 0.60920
 470.79;15059.042;  374.762;60677.863; 0.61349
 471.38;15048.347;  358.816;61146.166; 0.61681
 471.97;15088.248;  359.020;61564.389; 0.61861
 472.55;15114.210;  350.111;61933.679; 0.62026
 473.14;15168.138;  362.234;62406.602; 0.62227
 473.73;15146.758;  355.473;62971.535; 0.62668
 474.31;15146.356;  347.428;63489.444; 0.63009
 474.90;15201.835;  350.797;63899.238; 0.63135
 475.49;15226.506;  352.737;64160.914; 0.63246
 476.07;15214.904;  357.870;64473.326; 0.63503
 476.66;15167.095;  347.892;64752.829; 0.63809
 477.25;15145.620;  340.581;65000.332; 0.64022
 477.84;15117.486;  352.761;65155.193; 0.64237
 478.42;15072.244;  344.733;65155.945; 0.64352
 479.01;15043.301;  344.681;65156.001; 0.64437
 479.60;15141.482;  330.210;65156.511; 0.64116
 480.18;15128.576;  334.265;65158.257; 0.64164
 480.77;15083.477;  342.135;65159.480; 0.64315
 481.35;14895.036;  347.900;65159.373; 0.64887
 481.94;14812.849;  344.738;65159.188; 0.65126
 482.53;14804.258;  335.059;65159.923; 0.65130
 483.11;14815.050;  332.000;65160.709; 0.65091
 483.70;14769.069;  318.067;65161.719; 0.65197
 484.29;14692.688;  316.585;65163.324; 0.65425
 484.87;14675.583;  306.461;65164.542; 0.65453
 485.46;14547.978;  315.710;65164.272; 0.65863
 486.05;14512.947;  319.958;65162.920; 0.65979
 486.63;14369.946;  321.237;65162.258; 0.66421
 487.22;14356.936;  317.302;65162.909; 0.66452
 487.81;14207.741;  323.288;65164.368; 0.66932
 488.39;14168.849;  331.856;65164.474; 0.67075
 488.98;14045.101;  337.207;65163.733; 0.67478
 489.56;13999.838;  317.228;65164.794; 0.67572
 490.15;13854.762;  310.772;65166.371; 0.68020
 490.74;13797.188;  302.771;65167.454; 0.68185
 491.32;13643.525;  305.937;65168.774; 0.68692
 491.91;13455.489;  316.111;64974.057; 0.69205
 492.49;13300.742;  317.823;64712.314; 0.69548
 493.08;13095.221;  332.939;64167.133; 0.69913
 493.67;12947.638;  325.500;63724.219; 0.70095
 494.25;12717.606;  343.920;63105.848; 0.70520
 494.84;12596.183;  335.724;62474.087; 0.70485
 495.42;12545.189;  338.386;61959.759; 0.70313
 496.01;12398.749;  319.873;61399.648; 0.70387
 496.59;12236.219;  310.443;60754.114; 0.70486
 497.18;11995.920;  311.106;60078.479; 0.70884
 497.77;11828.420;  311.733;59331.632; 0.70967
 498.35;11669.591;  326.966;58841.796; 0.71255
 498.94;11579.342;  324.499;58030.218; 0.70988
 499.52;11520.648;  324.914;57567.186; 0.70866
 500.11;11435.741;  311.275;56906.600; 0.70650
 500.69;11337.718;  304.601;56449.246; 0.70661
 501.28;11227.181;  315.149;55764.708; 0.70599
 501.86;11078.939;  317.653;55155.772; 0.70722
 502.45;10935.215;  338.264;54632.693; 0.70957
 503.03;10831.842;  328.939;54106.656; 0.70929
 503.62;10751.262;  339.385;53665.090; 0.70941
 504.20;10724.478;  326.215;53123.968; 0.70565
 504.79;10690.333;  326.766;52666.148; 0.70332
 505.37;10710.380;  326.582;52358.543; 0.69991
 505.96;10682.265;  332.269;51859.105; 0.69709
 506.55;10769.337;  327.706;51491.158; 0.69019
 507.13;10805.595;  315.837;51254.709; 0.68628
 507.72;10885.954;  312.954;51138.387; 0.68188
 508.30;10876.188;  319.265;50944.634; 0.68083
 508.89;11034.370;  316.460;50626.145; 0.67154
 509.47;11149.953;  308.593;50383.056; 0.66453
 510.05;11252.104;  311.037;50305.214; 0.65986
 510.64;11334.092;  312.992;50205.541; 0.65581
 511.22;11455.700;  326.961;50242.492; 0.65179
 511.81;11664.393;  323.186;50282.527; 0.64396
 512.39;11859.144;  329.747;50266.280; 0.63661
 512.98;12037.981;  310.647;50213.110; 0.62892
 513.56;12249.838;  306.947;50200.284; 0.62093
 514.15;12415.739;  297.484;50225.841; 0.61491
 514.73;12658.569;  293.306;50310.339; 0.60691
 515.32;12820.941;  298.909;50412.714; 0.60228
 515.90;13029.034;  306.909;50529.464; 0.59634
 516.49;13195.511;  321.223;50576.262; 0.59146
 517.07;13371.394;  323.415;50501.804; 0.58497
 517.66;13600.882;  325.663;50468.951; 0.57717
 518.24;13898.040;  330.491;50581.443; 0.56864
 518.82;14160.045;  322.791;50433.118; 0.55888
 519.41;14355.511;  321.449;50483.238; 0.55319
 519.99;14622.899;  304.901;50520.942; 0.54496
 520.58;14937.810;  313.039;50964.514; 0.53950
 521.16;15360.815;  316.114;51139.212; 0.52868
 521.75;15640.425;  315.579;51354.849; 0.52251
 522.33;15925.089;  314.722;51552.832; 0.51618
 522.91;16210.060;  303.280;51724.449; 0.50956
 523.50;16519.371;  304.661;51708.091; 0.50108
 524.08;16895.808;  292.957;51816.521; 0.49182
 524.67;17205.120;  296.699;52029.160; 0.48566
 525.25;17455.600;  294.898;52244.306; 0.48105
 525.83;17736.307;  300.195;52281.679; 0.47440
 526.42;17951.952;  299.604;52255.985; 0.46884
 527.00;18237.283;  297.414;52315.968; 0.46234
 527.59;18473.381;  293.742;52194.390; 0.45559
 528.17;18850.455;  296.702;52169.461; 0.44651
 528.75;19122.445;  314.407;52237.781; 0.44102
 529.34;19376.868;  317.963;52410.206; 0.43668
 529.92;19548.025;  322.096;52599.701; 0.43443
 530.50;19846.416;  308.099;52577.086; 0.42736
 531.09;20134.920;  310.277;52580.588; 0.42105
 531.67;20347.064;  319.699;52493.409; 0.41583
 532.25;20578.614;  331.224;52474.618; 0.41083
 532.84;20724.754;  319.265;52286.406; 0.40598
 533.42;20932.472;  303.579;52069.121; 0.39956
 534.00;21017.296;  296.379;51800.283; 0.39543
 534.59;21144.701;  306.923;51692.027; 0.39199
 535.17;21262.975;  307.396;51484.292; 0.38777
 535.75;21444.380;  311.833;51399.345; 0.38336
 536.34;21692.345;  327.170;51106.314; 0.37598
 536.92;21913.710;  323.362;50970.357; 0.37029
 537.50;22086.056;  320.767;50555.361; 0.36324
 538.09;22127.306;  304.234;50224.272; 0.35936
 538.67;22270.725;  307.957;49849.711; 0.35328
 539.25;22364.582;  292.004;49517.578; 0.34834
 539.84;22581.446;  298.382;49195.084; 0.34130
 540.42;22576.130;  287.620;48747.408; 0.33730
 541.00;22593.999;  304.712;48328.615; 0.33336
 541.59;22645.857;  293.453;47996.146; 0.32922
 542.17;22728.028;  303.713;47681.974; 0.32486
 542.75;22868.149;  301.687;47449.085; 0.31999
 543.33;22820.492;  321.928;47035.436; 0.31729
 543.92;22917.518;  322.791;46647.473; 0.31181
 544.50;22958.383;  319.637;46212.001; 0.30689
 545.08;23151.792;  303.653;45900.067; 0.30008
 545.67;23246.251;  304.594;45544.519; 0.29490
 546.25;23470.997;  306.855;45243.598; 0.28779
 546.83;23559.291;  305.919;44881.223; 0.28261
 547.41;23596.698;  307.185;44485.963; 0.27805
 548.00;23459.816;  304.048;44073.416; 0.27651
 548.58;23396.418;  293.554;43651.340; 0.27340
 549.16;23463.384;  273.252;43462.973; 0.27008
 549.74;23659.418;  276.221;43125.006; 0.26303
 550.33;23754.444;  287.338;42789.017; 0.25795
 550.91;23774.234;  287.502;42328.145; 0.25285
 551.49;23778.806;  275.114;42084.067; 0.25013
 552.07;23837.417;  281.527;41894.675; 0.24713
 552.66;23961.335;  296.715;41696.915; 0.24290
 553.24;24047.223;  301.874;41407.799; 0.23833
 553.82;24220.491;  287.046;41262.389; 0.23352
 554.40;24343.752;  287.502;41018.645; 0.22870
 554.98;24518.958;  286.839;40927.197; 0.22457
 555.57;24637.860;  295.511;40724.442; 0.22033
 556.15;24794.946;  295.794;40729.857; 0.21760
 556.73;24843.287;  289.872;40584.856; 0.21514
 557.31;24908.205;  280.087;40487.094; 0.21287
 557.89;24963.348;  267.680;40402.230; 0.21090
 558.48;25134.934;  270.725;40389.487; 0.20777
 559.06;25412.421;  269.279;40492.969; 0.20406
 559.64;25732.143;  288.172;40421.363; 0.19792
 560.22;25939.271;  308.276;40298.501; 0.19319
 560.80;26045.544;  311.749;40155.433; 0.18986
 561.39;26115.931;  300.174;40123.139; 0.18825
 561.97;26307.933;  304.256;40118.465; 0.18500
 562.55;26570.726;  305.864;40159.584; 0.18109
 563.13;26940.958;  307.652;40244.814; 0.17595
 563.71;27170.469;  295.320;40343.674; 0.17323
 564.29;27369.289;  296.315;40286.513; 0.16942
 564.88;27312.155;  280.495;40218.374; 0.16951
 565.46;27402.565;  277.260;40267.767; 0.16858
 566.04;27525.707;  269.464;40338.574; 0.16734
 566.62;27855.580;  292.162;40520.457; 0.16420
 567.20;28163.467;  292.265;40647.678; 0.16075
 567.78;28385.207;  300.170;40851.754; 0.15953
 568.36;28637.207;  300.837;41002.754; 0.15727
 568.94;28866.649;  296.460;41004.189; 0.15376
 569.53;28965.655;  295.816;41099.192; 0.15327
 570.11;29156.289;  283.902;41113.488; 0.15049
 570.69;29365.387;  278.869;41248.245; 0.14877
 571.27;29686.071;  279.854;41227.262; 0.14379
 571.85;29800.698;  279.584;41295.220; 0.14282
 572.43;29914.708;  299.078;41479.213; 0.14317
 573.01;30058.366;  288.199;41566.526; 0.14194
 573.59;30261.837;  284.931;41522.011; 0.13850
 574.17;30416.120;  270.419;41423.650; 0.13518
 574.76;30662.885;  278.826;41529.098; 0.13278
 575.34;30900.783;  274.920;41725.997; 0.13145
 575.92;31165.309;  271.771;41808.186; 0.12856
 576.50;31352.958;  265.398;41828.507; 0.12612
 577.08;31478.834;  261.206;41866.048; 0.12474
 577.66;31560.489;  250.776;41875.013; 0.12367
 578.24;31651.644;  252.747;41879.155; 0.12245
 578.82;31773.734;  257.942;41897.583; 0.12098
 579.40;31937.694;  266.978;41903.210; 0.11881
 579.98;32091.446;  273.567;41841.961; 0.11609
 580.56;32254.801;  281.852;41853.319; 0.11401
 581.14;32397.648;  291.659;41917.834; 0.11278
 581.72;32500.061;  280.280;42082.244; 0.11307
 582.30;32647.295;  273.151;42074.467; 0.11099
 582.88;32789.114;  274.650;42152.288; 0.10991
 583.46;33018.304;  282.363;42189.821; 0.10727
 584.04;33149.595;  282.956;42171.457; 0.10534
 584.62;33224.287;  265.125;42197.830; 0.10458
 585.21;33299.560;  267.265;42241.428; 0.10404
 585.79;33375.483;  273.754;42392.009; 0.10462
 586.37;33574.782;  277.118;42415.309; 0.10226
 586.95;33812.618;  275.522;42455.787; 0.09958
 587.53;34022.334;  269.979;42469.819; 0.09701
 588.11;34160.100;  278.442;42585.262; 0.09645
 588.69;34254.357;  282.733;42557.865; 0.09497
 589.27;34412.966;  283.424;42506.477; 0.09242
 589.85;34573.431;  276.026;42443.602; 0.08972
 590.43;34584.771;  271.715;42599.939; 0.09117
 591.01;34618.012;  278.076;42722.853; 0.09202
 591.59;34766.769;  288.299;42936.945; 0.09236
 592.16;35010.481;  287.924;42891.657; 0.08884
 592.74;35197.545;  291.617;42886.045; 0.08645
 593.32;35185.131;  293.193;42739.948; 0.08512
 593.90;35202.821;  297.895;42708.966; 0.08459
 594.48;35247.221;  288.777;42603.037; 0.08293
 595.06;35319.648;  285.245;42684.475; 0.08286
 595.64;35390.743;  272.769;42709.242; 0.08221
 596.22;35453.975;  276.890;42757.472; 0.08193
 596.80;35596.129;  268.138;42505.619; 0.07758
 597.38;35653.741;  264.245;42457.558; 0.07637
 597.96;35575.424;  262.869;42299.911; 0.07570
 598.54;35540.582;  268.057;42320.734; 0.07636
 599.12;35633.595;  272.769;42174.074; 0.07371
 599.70;35660.808;  272.156;42133.628; 0.07295
 600.28;35586.722;  269.178;41999.881; 0.07247
 600.86;35492.085;  273.568;41898.236; 0.07258
 601.44;35574.503;  279.130;41816.989; 0.07073
 602.02;35574.497;  273.135;41601.984; 0.06846
 602.59;35592.685;  269.019;41487.164; 0.06702
 603.17;35498.169;  254.435;41427.991; 0.06754
 603.75;35507.533;  264.600;41407.036; 0.06722
 604.33;35440.865;  268.544;41269.041; 0.06659
 604.91;35424.469;  272.574;41056.648; 0.06454
 605.49;35346.561;  271.546;40985.067; 0.06474
 606.07;35198.056;  254.900;40828.877; 0.06489
 606.65;35101.548;  260.422;40696.701; 0.06468
 607.23;34949.312;  264.441;40448.820; 0.06392
 607.80;34831.864;  277.156;40221.379; 0.06295
 608.38;34760.304;  277.256;40025.464; 0.06171
 608.96;34717.181;  285.786;39921.000; 0.06113
 609.54;34568.889;  288.246;39743.725; 0.06106
 610.12;34437.539;  283.928;39528.375; 0.06034
 610.70;34191.454;  273.259;39095.265; 0.05865
 611.28;34039.919;  259.195;38813.390; 0.05740
 611.85;33789.756;  265.841;38433.913; 0.05635
 612.43;33570.460;  260.695;38304.961; 0.05772
 613.01;33393.998;  263.202;38019.161; 0.05675
 613.59;33181.954;  249.299;37795.112; 0.05693
 614.17;33210.251;  240.914;37668.085; 0.05508
 614.75;32951.370;  222.778;37521.205; 0.05676
 615.32;32710.614;  209.277;37291.775; 0.05727
 615.90;32460.403;  219.080;36866.572; 0.05563
 616.48;32302.148;  232.952;36658.988; 0.05532
 617.06;32080.652;  255.157;36308.488; 0.05417
 617.64;31810.973;  246.140;36072.812; 0.05500
 618.22;31606.678;  241.049;35666.522; 0.05286
 618.79;31571.444;  228.178;35515.632; 0.05148
 619.37;31379.828;  227.104;35180.352; 0.04999
 619.95;31092.765;  231.387;34894.600; 0.05045
 620.53;30660.665;  218.869;34491.494; 0.05148
 621.11;30255.456;  206.529;34156.975; 0.05302
 621.68;30108.845;  201.116;33920.700; 0.05210
 622.26;30121.600;  202.843;33803.106; 0.05040
 622.84;30116.539;  212.594;33643.042; 0.04841
 623.42;29963.900;  214.208;33340.072; 0.04668
 623.99;29726.651;  232.130;33128.823; 0.04741
 624.57;29534.701;  239.695;32874.211; 0.04688
 625.15;29400.434;  249.244;32723.283; 0.04688
 625.73;29161.598;  235.066;32483.448; 0.04721
 626.30;28962.944;  228.444;32290.122; 0.04758
 626.88;28801.759;  228.031;32032.596; 0.04652
 627.46;28613.937;  230.061;31766.787; 0.04574
 628.04;28425.694;  242.419;31549.234; 0.04565
 628.61;28192.565;  241.899;31249.103; 0.04507
 629.19;27933.887;  244.829;31015.066; 0.04582
 629.77;27646.583;  231.831;30736.758; 0.04639
 630.35;27444.341;  234.217;30562.869; 0.04712
 630.92;27439.384;  232.092;30375.921; 0.04451
 631.50;27339.263;  220.757;30199.145; 0.04354
 632.08;27164.793;  206.521;29949.680; 0.04270
 632.66;26924.246;  196.801;29744.460; 0.04357
 633.23;26779.545;  216.776;29426.430; 0.04125
 633.81;26564.806;  225.566;29138.020; 0.04048
 634.39;26401.221;  220.298;28844.754; 0.03875
 634.96;26171.928;  221.956;28624.791; 0.03922
 635.54;26056.348;  216.680;28606.896; 0.04088
 636.12;25765.738;  214.735;28334.976; 0.04161
 636.69;25601.028;  204.526;28222.591; 0.04266
 637.27;25335.285;  199.403;27913.834; 0.04241
 637.85;25349.852;  217.219;27696.062; 0.03876
 638.42;25143.111;  206.286;27392.989; 0.03752
 639.00;24998.899;  223.367;27259.457; 0.03792
 639.58;24692.710;  209.789;26981.612; 0.03881
 640.15;24482.574;  222.891;26790.445; 0.03947
 640.73;24280.355;  204.119;26492.226; 0.03817
 641.31;24070.471;  216.013;26471.006; 0.04164
 641.88;23886.586;  210.908;26285.787; 0.04192
 642.46;23786.701;  226.803;26132.901; 0.04123
 643.04;23692.149;  214.697;25934.349; 0.03961
 643.61;23585.931;  223.925;25817.463; 0.03962
 644.19;23411.713;  209.153;25659.577; 0.04016
 644.77;23256.494;  224.048;25468.358; 0.03982
 645.34;23121.943;  211.943;25293.805; 0.03933
 645.92;23051.391;  214.504;25070.586; 0.03680
 646.49;22940.840;  218.399;24938.033; 0.03659
 647.07;22830.288;  220.293;24745.814; 0.03532
 647.65;22687.403;  224.188;24564.928; 0.03486
 648.22;22564.185;  218.082;24391.042; 0.03413
 648.80;22486.967;  227.310;24368.156; 0.03523
 649.37;22406.415;  227.872;24339.937; 0.03630
 649.95;22281.864;  227.433;24242.051; 0.03698
 650.53;22161.312;  209.328;24121.165; 0.03714
 651.10;21994.427;  214.222;24054.279; 0.03925
 651.68;21891.209;  211.450;24020.060; 0.04068
 652.25;21883.657;  221.012;23899.174; 0.03864
 652.83;21816.772;  211.573;23700.955; 0.03631
 653.41;21761.221;  208.468;23524.069; 0.03414
 653.98;21601.003;  212.362;23340.850; 0.03396
 654.56;21512.118;  211.590;23307.630; 0.03515
 655.13;21458.566;  208.818;23285.744; 0.03582
 655.71;21340.681;  207.379;23284.525; 0.03821
 656.28;21308.463;  194.941;23185.639; 0.03699
 656.86;21249.578;  188.169;22962.753; 0.03396
 657.43;21330.360;  190.397;22872.868; 0.03059
 658.01;21373.475;  212.958;22793.315; 0.02820
 658.58;21323.257;  207.519;22876.096; 0.03082
 659.16;21238.705;  211.747;22798.876; 0.03108
 659.74;21088.154;  196.309;22777.324; 0.03377
 660.31;21030.602;  204.203;22714.438; 0.03377
 660.89;21046.050;  198.098;22687.885; 0.03292
 661.46;21027.499;  206.659;22545.999; 0.03057
 662.04;21013.947;  208.554;22516.780; 0.03029
 662.61;20983.396;  207.448;22500.894; 0.03062
 663.19;21048.177;  206.676;22626.342; 0.03170
 663.76;21102.626;  209.571;22600.456; 0.03007
 664.34;21112.074;  211.132;22526.237; 0.02843
 664.91;21163.856;  214.027;22413.684; 0.02517
 665.49;21235.304;  216.922;22441.798; 0.02424
 666.06;21191.086;  213.150;22513.246; 0.02654
 666.64;21164.535;  212.044;22555.693; 0.02792
 667.21;21099.316;  216.606;22500.140; 0.02820
 667.79;21132.765;  204.167;22400.588; 0.02554
 668.36;21070.547;  201.395;22402.702; 0.02687
 668.93;21043.995;  202.290;22421.149; 0.02779
 669.51;20955.443;  198.184;22426.263; 0.02973
 670.08;20942.225;  192.412;22387.044; 0.02923
 670.66;20934.340;  189.307;22273.825; 0.02717
 671.23;21097.122;  213.201;22361.606; 0.02553
 671.81;21135.904;  219.763;22403.720; 0.02556
 672.38;21119.019;  224.324;22501.167; 0.02782
 672.96;21073.801;  213.552;22510.281; 0.02892
 673.53;20999.249;  213.113;22482.395; 0.02993
 674.10;21079.364;  213.008;22524.843; 0.02909
 674.68;21021.479;  228.236;22505.290; 0.02994
 675.25;21086.261;  221.131;22417.404; 0.02686
 675.83;21029.709;  215.692;22370.185; 0.02711
 676.40;21051.825;  203.253;22300.299; 0.02526
 676.98;21011.940;  209.148;22323.413; 0.02655
 677.55;20919.055;  210.043;22281.527; 0.02767
 678.12;20888.170;  223.937;22260.975; 0.02793
 678.70;20799.952;  221.832;22236.089; 0.02930
 679.27;20900.400;  229.060;22163.870; 0.02577
 679.85;20861.182;  216.621;22124.984; 0.02580
 680.42;20929.630;  216.516;22133.431; 0.02453
 680.99;20790.745;  192.744;22099.212; 0.02675
 681.57;20717.527;  198.305;22028.659; 0.02690
 682.14;20600.975;  205.866;21848.773; 0.02579
 682.71;20613.424;  210.761;21795.554; 0.02446
 683.29;20605.539;  200.656;21706.668; 0.02283
 683.86;20538.321;  185.884;21546.116; 0.02099
 684.43;20355.769;  198.112;21362.230; 0.02116
 685.01;20246.218;  197.006;21197.011; 0.02012
 685.58;20247.666;  206.234;21272.458; 0.02166
 686.16;20333.114;  206.462;21269.239; 0.01974
 686.73;20329.563;  215.023;21397.686; 0.02247
 687.30;20249.011;  207.585;21388.467; 0.02402
 687.88;20148.460;  217.479;21321.914; 0.02485
 688.45;20018.575;  210.707;21118.362; 0.02347
 689.02;19934.690;  213.602;21022.142; 0.02331
 689.60;19891.472;  190.497;20889.257; 0.02146
 690.17;19841.920;  199.391;20926.704; 0.02335
 690.74;19784.368;  189.619;20805.485; 0.02206
 691.31;19700.150;  204.181;20824.932; 0.02436
 691.89;19634.265;  191.742;20754.713; 0.02433
 692.46;19670.714;  212.637;20700.494; 0.02240
 693.03;19622.829;  229.198;20611.941; 0.02160
 693.61;19561.611;  234.759;20426.722; 0.01902
 694.18;19443.726;  237.320;20424.503; 0.02163
 694.75;19443.507;  206.882;20414.950; 0.02140
 695.32;19415.623;  208.110;20458.064; 0.02295
 695.90;19333.071;  203.004;20312.512; 0.02168
 696.47;19169.186;  203.899;20210.626; 0.02322
 697.04;19084.301;  214.460;20060.073; 0.02190
 697.62;19058.750;  213.355;20039.187; 0.02203
 698.19;19062.198;  229.250;19951.301; 0.02003
 698.76;18994.313;  211.144;19960.082; 0.02177
 699.33;18981.095;  210.706;19883.196; 0.02039
 699.91;18869.877;  196.600;19795.977; 0.02102
 700.48;18869.325;  206.162;19674.091; 0.01833
 701.05;18789.107;  208.056;19645.538; 0.01957
 701.62;18753.889;  232.951;19536.652; 0.01798
 702.20;18664.670;  235.179;19463.767; 0.01843
 702.77;18518.452;  232.073;19314.881; 0.01851
 703.34;18539.567;  217.301;19303.995; 0.01775
 703.91;18428.016;  214.196;19161.775; 0.01715
 704.48;18386.464;  220.091;19054.223; 0.01568
 705.06;18257.246;  212.652;18964.004; 0.01669
 705.63;18239.028;  221.213;18940.118; 0.01658
 706.20;18250.476;  214.441;18934.565; 0.01617
 706.77;18086.258;  221.336;18864.679; 0.01852
 707.34;18040.039;  215.564;18821.793; 0.01864
 707.92;17873.488;  205.792;18710.907; 0.02011
 708.49;17895.603;  193.353;18575.022; 0.01636
 709.06;17803.385;  193.248;18466.136; 0.01604
 709.63;17789.833;  194.476;18431.916; 0.01557
 710.20;17682.948;  191.037;18446.697; 0.01856
 710.77;17705.063;  187.932;18338.145; 0.01542
 711.35;17684.178;  185.826;18305.592; 0.01516
 711.92;17775.294;  205.721;18271.706; 0.01210
 712.49;17855.409;  207.616;18372.487; 0.01254
 713.06;17862.857;  215.844;18405.934; 0.01316
 713.63;17877.972;  209.405;18498.382; 0.01499
 714.20;17746.087;  212.300;18556.829; 0.01963
 714.78;17774.869;  209.528;18487.277; 0.01727
 715.35;17698.984;  205.756;18407.724; 0.01725
 715.92;17702.099;  207.317;18351.838; 0.01584
 716.49;17710.548;  222.545;18343.285; 0.01544
 717.06;17705.329;  226.106;18273.400; 0.01389
 717.63;17679.111;  217.334;18198.847; 0.01274
 718.20;17513.226;  210.895;18175.294; 0.01631
 718.77;17388.341;  224.790;18170.075; 0.01934
 719.35;17326.123;  226.351;18153.189; 0.02051
 719.92;17364.238;  211.913;18038.303; 0.01674
 720.49;17375.687;  197.474;17879.084; 0.01254
 721.06;17321.468;  177.369;17774.532; 0.01133
 721.63;17322.917;  190.930;17799.979; 0.01193
 722.20;17277.365;  195.825;17861.426; 0.01460
 722.77;17244.480;  203.386;17825.540; 0.01456
 723.34;17240.929;  196.947;17821.321; 0.01454
 723.91;17262.377;  205.509;17813.102; 0.01380
 724.48;17306.492;  222.070;17777.883; 0.01182
 725.05;17153.941;  212.964;17617.997; 0.01174
 725.62;17072.389;  195.192;17490.778; 0.01063
 726.20;16981.171;  186.754;17461.892; 0.01226
 726.77;16894.619;  192.982;17446.339; 0.01411
 727.34;16885.401;  199.210;17412.787; 0.01351
 727.91;16947.849;  209.104;17361.567; 0.01060
 728.48;17036.298;  214.999;17354.015; 0.00813
 729.05;16954.746;  215.560;17353.795; 0.01023
 729.62;16938.861;  192.788;17320.910; 0.00980
 730.19;16922.310;  185.683;17297.024; 0.00962
 730.76;16982.758;  188.578;17324.138; 0.00874
 731.33;16842.540;  211.472;17306.252; 0.01194
 731.90;16792.655;  215.034;17274.033; 0.01243
 732.47;16735.437;  206.261;17242.147; 0.01311
 733.04;16756.552;  191.156;17245.594; 0.01264
 733.61;16660.000;  168.051;17256.042; 0.01542
 734.18;16680.782;  173.945;17191.156; 0.01322
 734.75;16539.897;  184.507;17077.270; 0.01404
 735.32;16568.679;  211.401;16955.384; 0.01015
 735.89;16415.127;  203.963;16851.831; 0.01154
 736.46;16406.243;  212.191;16734.945; 0.00873
 737.03;16274.024;  203.085;16674.393; 0.01069
 737.60;16264.473;  203.647;16580.840; 0.00847
 738.17;16134.254;  173.208;16558.621; 0.01140
 738.74;16060.370;  184.103;16523.735; 0.01249
 739.31;15918.485;  185.331;16430.849; 0.01392
 739.88;15920.933;  195.225;16300.630; 0.01036
 740.45;15868.715;  176.120;16234.411; 0.01000
 741.02;15886.497;  174.348;16293.858; 0.01112
 741.59;15836.945;  171.909;16337.305; 0.01365
 742.15;15860.727;  177.804;16325.753; 0.01269
 742.72;15921.175;  185.365;16376.867; 0.01240
 743.29;15934.624;  187.593;16351.648; 0.01135
 743.86;15999.739;  195.154;16298.095; 0.00812
 744.43;15942.520;  197.049;16220.543; 0.00760
 745.00;15997.636;  201.277;16240.323; 0.00662
 745.57;15959.751;  209.172;16261.771; 0.00825
 746.14;15970.532;  201.733;16198.552; 0.00623
 746.71;15888.648;  208.294;16179.666; 0.00799
 747.28;15870.096;  196.522;16170.446; 0.00824
 747.85;15839.544;  172.417;16124.227; 0.00782
 748.42;15881.326;  173.645;16103.675; 0.00610
 748.98;15848.775;  177.206;16075.455; 0.00624
 749.55;15799.223;  197.767;16011.569; 0.00587
 750.12;15760.005;  197.662;16015.683; 0.00708
 750.69;15707.453;  204.890;15955.131; 0.00688
 751.26;15718.568;  216.118;15910.245; 0.00534
 751.83;15631.017;  206.013;15821.026; 0.00532
 752.40;15593.798;  204.907;15769.807; 0.00494
 752.97;15518.247;  192.802;15780.587; 0.00737
 753.53;15518.029;  195.697;15773.035; 0.00717
 754.10;15429.477;  187.925;15706.815; 0.00783
 754.67;15403.592;  185.486;15666.263; 0.00743
 755.24;15357.707;  192.714;15616.044; 0.00734
 755.81;15331.489;  200.608;15583.491; 0.00717
 756.38;15266.937;  223.503;15510.272; 0.00697
 756.94;15246.053;  215.064;15482.386; 0.00678
 757.51;15203.168;  204.292;15502.833; 0.00859
 758.08;15108.283;  196.520;15545.281; 0.01254
 758.65;15081.731;  213.748;15443.728; 0.01045
 759.22;15024.180;  220.643;15351.176; 0.00949
 759.79;14971.628;  205.538;15180.623; 0.00610
 760.35;14790.410;  191.432;15130.404; 0.01000
 760.92;14611.525;  201.994;14987.518; 0.01119
 761.49;14488.307;  208.555;14849.965; 0.01086
 762.06;14392.088;  211.783;14641.079; 0.00756
 762.63;14467.203;  201.011;14500.527; 0.00101
 763.19;14363.319;  203.239;14469.641; 0.00325
 763.76;14270.100;  215.133;14423.422; 0.00471
 764.33;14059.882;  219.695;14294.202; 0.00729
 764.90;13909.997;  218.589;14107.650; 0.00622
 765.46;13748.112;  197.817;13914.097; 0.00529
 766.03;13529.561;  196.045;13749.878; 0.00712
 766.60;13445.009;  197.940;13624.992; 0.00586
 767.17;13286.791;  205.501;13465.773; 0.00590
 767.73;13245.239;  207.063;13413.220; 0.00556
 768.30;13019.021;  206.624;13205.001; 0.00626
 768.87;12888.469;  215.185;13045.782; 0.00536
 769.44;12672.918;  213.413;12836.229; 0.00566
 770.00;12553.033;  215.975;12686.677; 0.00468
 770.57;12407.481;  216.536;12525.791; 0.00419
 771.14;12205.263;  213.430;12350.238; 0.00522
 771.71;12006.045;  198.325;12122.686; 0.00427
 772.27;11759.827;  206.220;11935.800; 0.00656
 772.84;11611.942;  209.448;11715.914; 0.00394
 773.41;11474.057;  213.676;11595.695; 0.00467
 773.97;11327.505;  205.904;11440.809; 0.00440
 774.54;11112.620;  213.798;11314.923; 0.00799
 775.11;10972.735;  232.360;11227.370; 0.01018
 775.67;10838.851;  228.588;11074.818; 0.00955
 776.24;10749.966;  222.482;10902.265; 0.00624
 776.81;10578.747;  220.377;10665.712; 0.00363
 777.38;10455.529;  208.272;10484.160; 0.00121
 777.94;10337.644;  214.166;10350.941; 0.00057
 778.51;10214.759;  199.728;10214.721; 0.00000
 779.08;10077.541;  210.622;10137.835; 0.00265
 779.64;10015.323;  201.517;10058.283; 0.00190
 780.21; 9895.771;  202.745; 9970.064; 0.00332
 780.78; 9796.886;  211.639; 9870.178; 0.00331
 781.34; 9610.668;  212.534; 9787.625; 0.00810
 781.91; 9510.783;  225.762; 9703.406; 0.00892
 782.47; 9455.898;  227.990; 9633.520; 0.00828
 783.04; 9378.347;  238.551; 9482.634; 0.00493
 783.61; 9301.795;  245.779; 9385.415; 0.00399
 784.17; 9227.910;  246.674; 9320.196; 0.00444
 784.74; 9202.692;  236.569; 9240.310; 0.00182
 785.31; 9157.807;  244.797; 9256.090; 0.00476
 785.87; 9109.922;  248.691; 9137.538; 0.00135
 786.44; 9083.704;  252.252; 9126.319; 0.00209
 787.00; 9062.152;  239.480; 9065.766; 0.00018
 787.57; 9004.267;  222.375; 9005.880; 0.00008
 788.14; 8958.383;  242.936; 8941.661;-0.00083
 788.70; 8931.831;  252.831; 8828.442;-0.00520
 789.27; 8939.279;  261.392; 8880.222;-0.00297
 789.83; 8891.395;  247.620; 8836.003;-0.00279
 790.40; 8861.843;  230.182; 8838.117;-0.00120
 790.96; 8797.625;  235.076; 8799.898; 0.00012
 791.53; 8757.073;  229.304; 8766.679; 0.00049
 792.10; 8688.855;  224.866; 8777.126; 0.00451
 792.66; 8582.303;  219.094; 8720.574; 0.00712
 793.23; 8540.752;  214.988; 8733.688; 0.00995
 793.79; 8501.533;  216.216; 8675.468; 0.00902
 794.36; 8539.982;  210.777; 8660.249; 0.00623
 794.92; 8526.097;  219.339; 8606.363; 0.00418
 795.49; 8518.212;  232.233; 8532.811; 0.00076
 796.05; 8492.327;  243.461; 8505.258; 0.00068
 796.62; 8499.442;  248.023; 8527.372; 0.00147
 797.19; 8423.891;  237.917; 8507.820; 0.00443
 797.75; 8388.339;  226.145; 8453.600; 0.00346
 798.32; 8341.121;  218.373; 8393.714; 0.00280
 798.88; 8346.236;  222.601; 8383.829; 0.00201
 799.45; 8374.351;  224.829; 8436.276; 0.00329
 800.01; 8435.133;  220.391; 8517.723; 0.00434
 800.58; 8660.248;  215.952; 8677.504; 0.00089
 801.14; 8907.363;  222.513; 8916.952; 0.00048
 801.71; 9162.145;  218.074; 9117.399;-0.00218
 802.27; 9406.927;  206.969; 9310.180;-0.00459
 802.84; 9640.708;  188.864; 9480.294;-0.00743
 803.40; 9873.157;  179.758; 9723.075;-0.00678
 803.96;10181.938;  198.986;10006.189;-0.00771
 804.53;10478.720;  210.548;10273.303;-0.00878
 805.09;10788.502;  208.442;10576.417;-0.00879
 805.66;11059.617;  200.670;10926.198;-0.00537
 806.22;11431.399;  172.898;11264.978;-0.00647
 806.79;11821.181;  185.793;11622.426;-0.00748
 807.35;12127.629;  182.354;11886.873;-0.00884
 807.92;12420.411;  214.582;12161.654;-0.00931
 808.48;12740.859;  221.810;12436.768;-0.01068
 809.05;13095.974;  217.705;12708.882;-0.01325
 809.61;13285.089;  213.933;13054.330;-0.00774
 810.17;13582.204;  218.827;13355.110;-0.00744
 810.74;13853.986;  231.055;13671.891;-0.00584
 811.30;14290.101;  226.617;13899.672;-0.01223
 811.87;14521.883;  214.511;14212.453;-0.00950
 812.43;14805.998;  214.406;14571.233;-0.00704
 812.99;15089.447;  216.967;14881.014;-0.00613
 813.56;15566.562;  221.862;15191.462;-0.01075
 814.12;15855.343;  221.090;15523.909;-0.00931
 814.69;16175.792;  216.318;15866.356;-0.00850
 815.25;16369.907;  210.213;16143.804;-0.00612
 815.81;16759.689;  200.774;16302.251;-0.01217
 816.38;17121.137;  196.335;16642.699;-0.01245
 816.94;17432.252;  193.897;16882.479;-0.01408
 817.51;17701.034;  192.791;17283.594;-0.01048
 818.07;17935.482;  201.019;17504.374;-0.01069
 818.63;18207.264;  202.247;17804.155;-0.00983
 819.20;18478.713;  201.808;18033.936;-0.01070
 819.76;18674.828;  209.370;18216.050;-0.01093
 820.32;18939.276;  216.598;18394.831;-0.01282
 820.89;19038.725;  218.159;18583.278;-0.01064
 821.45;19189.506;  193.387;18775.726;-0.00956
 822.01;19247.288;  176.615;18965.173;-0.00647
 822.58;19395.403;  180.843;19065.620;-0.00752
 823.14;19442.185;  194.404;19233.068;-0.00474
 823.70;19557.300;  202.299;19352.182;-0.00463
 824.27;19598.082;  193.194;19462.963;-0.00303
 824.83;19660.530;  215.421;19467.743;-0.00433
 825.39;19594.645;  215.649;19374.524;-0.00496
 825.95;19487.427;  221.211;19316.972;-0.00386
 826.52;19297.542;  191.105;19274.752;-0.00052
 827.08;19087.324;  189.000;19152.200; 0.00149
 827.64;18984.439;  175.895;18949.314;-0.00081
 828.21;18768.221;  175.123;18660.095;-0.00253
 828.77;18527.336;  181.351;18397.542;-0.00308
 829.33;18154.451;  183.579;18029.323;-0.00303
 829.89;17904.233;  181.807;17638.104;-0.00657
 830.46;17500.014;  185.701;17297.218;-0.00512
 831.02;17165.463;  190.596;16895.332;-0.00697
 831.58;16752.245;  201.157;16540.779;-0.00558
 832.15;16371.360;  185.052;16128.893;-0.00655
 832.71;15934.142;  188.280;15811.341;-0.00340
 833.27;15435.590;  178.841;15353.455;-0.00234
 833.83;14975.705;  169.736;14940.569;-0.00103
 834.39;14407.153;  164.297;14394.016;-0.00040
 834.96;13954.602;  162.192;13925.464;-0.00092
 835.52;13506.717;  187.086;13474.578;-0.00105
 836.08;13195.499;  188.981;13047.025;-0.00499
 836.64;12804.280;  194.876;12619.473;-0.00641
 837.21;12415.396;  198.770;12148.920;-0.00958
 837.77;11940.511;  198.332;11759.367;-0.00675
 838.33;11488.626;  206.893;11447.148;-0.00160
 838.89;11073.074;  203.121;11001.596;-0.00287
 839.45;10612.856;  205.349;10589.710;-0.00097
 840.02;10233.971;  209.910;10134.490;-0.00433
 840.58; 9821.086;  201.805; 9836.938; 0.00072
 841.14; 9503.201;  224.699; 9457.052;-0.00217
 841.70; 9091.316;  220.594; 9049.833;-0.00204
 842.26; 8666.098;  218.155; 8613.280;-0.00272
 842.82; 8299.547;  209.050; 8233.061;-0.00358
 843.39; 7895.328;  200.278; 7802.175;-0.00529
 843.95; 7535.777;  213.839; 7446.956;-0.00530
 844.51; 7146.558;  213.734; 7076.737;-0.00440
 845.07; 6869.340;  223.295; 6751.184;-0.00779
 845.63; 6610.789;  228.523; 6447.965;-0.01122
 846.19; 6377.904;  213.418; 6205.745;-0.01230
 846.75; 6078.685;  212.646; 6042.860;-0.00266
 847.32; 5830.134;  191.874; 5828.307;-0.00014
 847.88; 5608.916;  198.435; 5647.088; 0.00305
 848.44; 5447.697;  182.996; 5418.202;-0.00244
 849.00; 5289.146;  188.224; 5206.649;-0.00708
 849.56; 5164.261;  183.119; 5035.763;-0.01135
 850.12; 5073.376;  176.680; 4913.211;-0.01444
 850.68; 4988.824;  181.908; 4877.325;-0.01019
 851.24; 4925.606;  184.136; 4806.439;-0.01105
 851.80; 4862.388;  199.364; 4790.220;-0.00677
 852.37; 4870.170;  196.592; 4731.334;-0.01310
 852.93; 4821.618;  204.820; 4729.448;-0.00876
 853.49; 4809.400;  212.715; 4650.895;-0.01524
 854.05; 4723.182;  223.943; 4597.676;-0.01229
 854.61; 4724.297;  224.171; 4520.790;-0.02010
 855.17; 4685.079;  234.066; 4501.904;-0.01825
 855.73; 4681.527;  222.627; 4484.352;-0.01964
 856.29; 4595.975;  213.855; 4475.132;-0.01214
 856.85; 4606.757;  192.749; 4517.913;-0.00883
 857.41; 4670.539;  203.644; 4600.027;-0.00691
 857.97; 4768.321;  205.205; 4760.141;-0.00078
 858.53; 4902.769;  207.433; 4902.255;-0.00005
 859.09; 5072.884;  192.328; 5028.370;-0.00398
 859.65; 5340.333;  184.889; 5166.484;-0.01490
 860.21; 5644.781;  182.451; 5403.598;-0.01961
 860.77; 5941.563;  179.679; 5685.045;-0.01978
 861.33; 6269.011;  189.573; 6014.826;-0.01855
 861.89; 6504.126;  205.135; 6331.273;-0.01208
 862.45; 6811.908;  215.363; 6656.387;-0.01036
 863.01; 7144.690;  205.924; 6960.168;-0.01171
 863.57; 7553.138;  191.152; 7240.949;-0.01882
 864.13; 7911.587;  180.713; 7598.730;-0.01794
 864.69; 8294.702;  188.608; 7928.510;-0.02008
 865.25; 8657.484;  208.502; 8274.958;-0.02012
 865.81; 8957.265;  215.730; 8598.739;-0.01819
 866.37; 9289.380;  213.625; 8883.853;-0.01985
 866.93; 9625.162;  200.853; 9198.967;-0.02010
 867.49;10010.944;  216.081; 9536.081;-0.02158
 868.05;10269.059;  210.642; 9849.195;-0.01852
 868.61;10528.507;  206.870;10116.309;-0.01770
 869.17;10797.289;  185.765;10306.090;-0.02058
 869.73;11182.738;  202.660;10652.537;-0.02149
 870.29;11518.853;  209.554;10985.985;-0.02096
 870.85;11883.968;  212.115;11316.099;-0.02166
 871.41;12135.083;  192.010;11700.213;-0.01611
 871.97;12514.865;  179.571;12032.994;-0.01731
 872.53;12936.313;  184.799;12414.108;-0.01816
 873.09;13325.761;  192.361;12748.222;-0.01953
 873.65;13744.543;  202.922;13125.336;-0.02033
 874.20;14082.658;  204.150;13530.783;-0.01762
 874.76;14485.658;  206.483;13844.450;-0.01995
 875.32;14865.658;  199.150;14344.450;-0.01571
 875.88;15276.992;  204.817;14722.117;-0.01629
 876.44;15649.658;  218.150;15059.450;-0.01694
 877.00;15971.992;  218.150;15358.117;-0.01726
 877.56;16233.658;  215.483;15696.450;-0.01481
 878.12;16563.658;  204.483;16104.450;-0.01237
 878.68;16900.658;  211.817;16344.450;-0.01472
 879.23;17229.658;  207.150;16637.783;-0.01537
 879.79;17429.658;  220.483;16875.783;-0.01421
 880.35;17530.325;  205.150;17127.117;-0.01023
 880.91;17736.658;  192.150;17367.783;-0.00923
 881.47;18036.325;  175.817;17611.783;-0.01045
 882.03;18474.325;  191.483;17929.783;-0.01313
 882.59;18689.658;  204.150;18199.450;-0.01167
 883.14;18885.992;  217.150;18423.117;-0.01090
 883.70;18986.992;  220.150;18492.117;-0.01161
 884.26;19184.658;  217.483;18606.117;-0.01345
 884.82;19255.658;  200.150;18627.783;-0.01455
 885.38;19234.658;  184.483;18693.783;-0.01251
 885.94;19155.658;  186.817;18692.783;-0.01073
 886.49;19158.992;  200.150;18759.783;-0.00924
 887.05;19185.992;  192.817;18819.450;-0.00846
 887.61;19176.658;  182.817;18766.450;-0.00948
 888.17;19091.325;  175.817;18655.450;-0.01012
 888.73;18928.992;  189.483;18492.450;-0.01024
 889.28;18697.992;  190.150;18251.117;-0.01061
 889.84;18528.992;  191.817;18020.450;-0.01221
 890.40;18330.325;  194.817;17792.450;-0.01308
 890.96;18246.992;  199.483;17628.450;-0.01515
 891.51;18073.658;  189.483;17470.117;-0.01491
 892.07;17919.658;  183.817;17244.117;-0.01687
 892.63;17739.992;  190.483;17036.783;-0.01776
 893.19;17531.325;  200.817;16880.117;-0.01663
 893.74;17294.325;  215.150;16772.783;-0.01347
 894.30;17118.325;  206.150;16671.450;-0.01163
 894.86;16966.658;  185.150;16510.450;-0.01197
 895.42;16874.658;  176.483;16397.450;-0.01259
 895.97;16866.992;  175.150;16362.450;-0.01333
 896.53;16819.992;  203.817;16299.450;-0.01382
 897.09;16841.992;  212.817;16258.117;-0.01552
 897.65;16736.658;  225.483;16079.783;-0.01763
 898.20;16671.325;  228.483;15994.117;-0.01827
 898.76;16582.992;  215.150;15888.117;-0.01884
 899.32;16448.992;  215.483;15824.450;-0.01704
 899.87;16405.992;  206.483;15765.117;-0.01753
 900.43;16281.325;  206.150;15631.783;-0.01791
 900.99;16208.658;  194.483;15508.450;-0.01942
 901.54;15973.658;  181.150;15319.450;-0.01837
 902.10;15780.658;  193.150;15133.117;-0.01843
 902.66;15554.325;  208.483;14918.117;-0.01839
 903.21;15420.658;  221.817;14754.117;-0.01948
 903.77;15254.992;  229.483;14588.450;-0.01971
 904.33;15103.658;  209.483;14443.783;-0.01968
 904.88;14933.325;  198.150;14329.783;-0.01816
 905.44;14825.992;  177.150;14293.450;-0.01608
 906.00;14730.992;  191.150;14324.117;-0.01233
 906.55;14636.658;  207.483;14294.117;-0.01043
 907.11;14591.658;  214.150;14239.117;-0.01078
 907.67;14477.992;  205.817;14016.117;-0.01429
 908.22;14379.658;  196.150;13855.783;-0.01634
 908.78;14223.658;  187.817;13715.783;-0.01601
 909.33;14144.325;  195.483;13616.783;-0.01674
 909.89;14086.658;  192.150;13488.783;-0.01910
 910.45;13962.992;  201.150;13406.783;-0.01792
 911.00;13802.658;  191.483;13362.117;-0.01429
 911.56;13705.992;  203.817;13272.117;-0.01418
 912.12;13590.325;  208.483;13101.117;-0.01617
 912.67;13454.658;  221.483;12951.117;-0.01685
 913.23;13195.992;  194.150;12807.450;-0.01318
 913.78;13093.992;  178.483;12651.783;-0.01513
 914.34;12994.992;  201.483;12642.117;-0.01215
 914.89;12929.992;  216.483;12543.117;-0.01342
 915.45;12809.325;  227.150;12558.117;-0.00876
 916.01;12734.658;  195.483;12386.117;-0.01224
 916.56;12675.658;  201.483;12282.450;-0.01391
 917.12;12588.992;  196.817;12063.117;-0.01883
 917.67;12475.992;  195.483;11981.117;-0.01786
 918.23;12325.658;  182.817;11944.450;-0.01385
 918.78;12222.325;  186.483;11927.117;-0.01078
 919.34;12107.325;  188.817;11843.783;-0.00971
 919.89;12033.325;  199.150;11694.117;-0.01263
 920.45;11887.325;  185.817;11531.783;-0.01340
 921.00;11777.658;  168.817;11330.783;-0.01705
 921.56;11605.992;  176.150;11296.783;-0.01191
 922.11;11480.658;  175.150;11154.450;-0.01272
 922.67;11320.325;  202.483;11048.450;-0.01075
 923.22;11225.992;  191.150;10815.450;-0.01647
 923.78;11035.658;  202.817;10632.117;-0.01649
 924.33;10862.992;  195.817;10497.117;-0.01516
 924.89;10636.325;  196.483;10361.117;-0.01160
 925.44;10430.325;  204.817;10248.117;-0.00781
 926.00;10299.992;  201.150;10018.783;-0.01226
 926.55;10154.658;  205.150; 9867.117;-0.01274
 927.11;10109.658;  188.150; 9720.450;-0.01738
 927.66; 9980.325;  177.817; 9717.117;-0.01182
 928.22; 9987.325;  174.483; 9670.783;-0.01424
 928.77; 9947.325;  190.150; 9636.117;-0.01408
 929.33; 9985.325;  204.150; 9587.783;-0.01802
 929.88; 9999.658;  205.150; 9516.450;-0.02197
 930.43; 9970.325;  182.483; 9493.450;-0.02169
 930.99; 9960.325;  174.817; 9470.117;-0.02232
 931.54; 9833.658;  167.150; 9456.783;-0.01727
 932.10; 9891.325;  190.150; 9473.117;-0.01914
 932.65; 9845.992;  197.150; 9480.117;-0.01679
 933.21; 9914.658;  198.483; 9496.450;-0.01911
 933.76; 9841.658;  187.483; 9472.117;-0.01695
 934.31; 9844.992;  183.150; 9454.117;-0.01793
 934.87; 9806.992;  190.150; 9433.783;-0.01719
 935.42; 9854.325;  199.483; 9431.450;-0.01945
 935.98; 9775.325;  195.483; 9388.450;-0.01790
 936.53; 9788.325;  193.817; 9335.450;-0.02100
 937.08; 9707.992;  191.150; 9347.783;-0.01676
 937.64; 9695.658;  197.817; 9356.783;-0.01578
 938.19; 9677.325;  196.483; 9425.117;-0.01171
 938.74; 9667.992;  199.817; 9340.117;-0.01531
 939.30; 9647.658;  187.150; 9339.783;-0.01437
 939.85; 9575.992;  186.483; 9209.783;-0.01728
 940.40; 9550.325;  173.817; 9251.783;-0.01405
 940.96; 9572.658;  187.150; 9238.450;-0.01575
 941.51; 9581.325;  189.483; 9244.783;-0.01585
 942.06; 9574.658;  197.150; 9160.450;-0.01962
 942.62; 9518.658;  184.817; 9036.783;-0.02302
 943.17; 9385.325;  195.150; 8966.450;-0.02026
 943.72; 9268.325;  180.483; 8903.117;-0.01781
 944.28; 9191.992;  199.483; 8795.117;-0.01960
 944.83; 9187.325;  184.150; 8766.783;-0.02078
 945.38; 9095.992;  194.483; 8735.117;-0.01797
 945.94; 9027.325;  186.483; 8804.450;-0.01109
 946.49; 8971.992;  205.150; 8772.783;-0.00998
 947.04; 8965.325;  208.817; 8738.117;-0.01142
 947.60; 8868.325;  215.150; 8638.117;-0.01171
 948.15; 8819.325;  203.483; 8519.117;-0.01540
 948.70; 8730.992;  212.817; 8413.783;-0.01648
 949.25; 8663.992;  206.150; 8325.117;-0.01776
 949.81; 8520.658;  208.817; 8271.117;-0.01324
 950.36; 8400.658;  198.483; 8157.117;-0.01309
 950.91; 8281.658;  207.150; 8037.783;-0.01332
 951.46; 8103.658;  203.817; 7873.117;-0.01286
 952.02; 7945.658;  207.150; 7734.117;-0.01204
 952.57; 7814.658;  207.150; 7606.450;-0.01205
 953.12; 7736.658;  218.483; 7526.117;-0.01234
 953.67; 7664.325;  218.150; 7443.783;-0.01306
 954.23; 7516.658;  215.817; 7359.450;-0.00945
 954.78; 7404.325;  208.150; 7234.450;-0.01038
 955.33; 7278.325;  218.150; 7119.783;-0.00986
 955.88; 7191.325;  217.150; 6980.117;-0.01336
 956.44; 7084.325;  230.483; 6838.450;-0.01587
 956.99; 7011.658;  228.817; 6737.117;-0.01794
 957.54; 6957.992;  223.817; 6672.783;-0.01879
 958.09; 6937.658;  222.150; 6636.783;-0.01991
 958.64; 6893.658;  206.817; 6607.450;-0.01900
 959.20; 6851.658;  203.483; 6532.450;-0.02137
 959.75; 6759.992;  199.817; 6496.450;-0.01781
 960.30; 6722.325;  218.150; 6441.783;-0.01915
 960.85; 6741.992;  225.150; 6424.450;-0.02169
 961.40; 6759.325;  228.817; 6381.117;-0.02591
 961.95; 6695.658;  231.817; 6360.783;-0.02310
 962.51; 6626.658;  239.483; 6360.117;-0.01851
 963.06; 6568.658;  242.817; 6380.117;-0.01314
 963.61; 6615.325;  234.150; 6314.783;-0.02095
 964.16; 6649.325;  235.150; 6258.450;-0.02731
 964.71; 6672.658;  222.483; 6212.117;-0.03217
 965.26; 6719.325;  213.150; 6253.117;-0.03229
 965.81; 6712.325;  210.817; 6289.117;-0.02923
 966.36; 6688.325;  208.483; 6323.783;-0.02515
 966.92; 6633.325;  216.150; 6305.117;-0.02280
 967.47; 6626.992;  218.483; 6338.117;-0.02003
 968.02; 6714.992;  232.483; 6354.117;-0.02488
 968.57; 6683.658;  234.817; 6375.450;-0.02127
 969.12; 6703.658;  219.817; 6368.783;-0.02303
 969.67; 6713.658;  204.483; 6420.783;-0.01999
 970.22; 6792.992;  194.150; 6469.783;-0.02181
 970.77; 6892.325;  199.817; 6539.117;-0.02355
 971.32; 6989.992;  197.483; 6593.117;-0.02615
 971.87; 7115.325;  198.817; 6693.117;-0.02735
 972.42; 7209.658;  215.150; 6793.117;-0.02667
 972.98; 7216.658;  220.817; 6908.783;-0.01955
 973.53; 7234.992;  231.483; 6996.117;-0.01507
 974.08; 7230.992;  215.483; 7040.450;-0.01196
 974.63; 7342.992;  223.483; 7078.450;-0.01644
 975.18; 7460.992;  218.483; 7103.117;-0.02201
 975.73; 7547.992;  224.817; 7157.450;-0.02380
 976.28; 7635.658;  221.483; 7219.117;-0.02511
 976.83; 7658.325;  221.483; 7315.450;-0.02050
 977.38; 7699.658;  219.483; 7373.783;-0.01934
 977.93; 7697.325;  222.150; 7387.450;-0.01839
 978.48; 7671.325;  228.483; 7365.783;-0.01820
 979.03; 7688.325;  234.817; 7358.117;-0.01968
 979.58; 7666.992;  221.483; 7329.117;-0.02017
 980.13; 7686.992;  207.150; 7367.783;-0.01894
 980.68; 7603.992;  186.483; 7310.450;-0.01754
 981.23; 7549.658;  185.817; 7278.117;-0.01632
 981.78; 7520.992;  207.150; 7207.450;-0.01903
 982.33; 7531.658;  219.150; 7257.117;-0.01662
 982.88; 7516.325;  232.483; 7211.783;-0.01855
 983.43; 7488.658;  218.150; 7145.783;-0.02098
 983.98; 7389.325;  215.150; 6984.117;-0.02525
 984.53; 7277.658;  203.817; 6873.450;-0.02555
 985.08; 7156.992;  209.817; 6835.783;-0.02056
 985.63; 7133.325;  211.150; 6787.117;-0.02228
 986.18; 7088.325;  218.817; 6756.783;-0.02148
 986.73; 6987.992;  218.483; 6610.450;-0.02492
 987.27; 6885.658;  227.483; 6521.117;-0.02445
 987.82; 6815.992;  238.483; 6431.783;-0.02614
 988.37; 6765.658;  243.150; 6400.783;-0.02500
 988.92; 6715.658;  234.150; 6351.117;-0.02514
 989.47; 6603.992;  214.483; 6285.117;-0.02223
 990.02; 6507.992;  208.483; 6199.117;-0.02183
 990.57; 6391.325;  208.150; 6083.117;-0.02221
 991.12; 6313.658;  215.150; 6044.450;-0.01961
 991.67; 6233.325;  213.817; 5969.117;-0.01949
 992.22; 6168.658;  200.483; 5915.450;-0.01883
 992.77; 6078.658;  200.150; 5802.450;-0.02090
 993.31; 6020.992;  204.817; 5735.783;-0.02184
 993.86; 5882.992;  230.483; 5683.783;-0.01558
 994.41; 5819.992;  235.150; 5580.117;-0.01907
 994.96; 5703.658;  226.483; 5473.117;-0.01868
 995.51; 5649.992;  218.817; 5377.783;-0.02233
 996.06; 5530.658;  208.483; 5293.783;-0.01977
 996.61; 5387.658;  222.483; 5201.783;-0.01592
 997.15; 5317.325;  236.150; 5083.450;-0.02046
 997.70; 5192.992;  241.150; 4965.117;-0.02046
 998.25; 5128.325;  247.483; 4873.450;-0.02329
 998.80; 4970.658;  248.483; 4740.117;-0.02174
 999.35; 4852.658;  249.483; 4623.450;-0.02218
 999.90; 4691.325;  236.150; 4455.117;-0.02366
1000.44; 4535.325;  224.483; 4340.450;-0.02009
1000.99; 4390.992;  232.483; 4190.783;-0.02143
1001.54; 4265.658;  237.150; 4067.450;-0.02191
1002.09; 4118.658;  231.817; 3939.117;-0.02054
1002.64; 4049.325;  238.483; 3855.450;-0.02268
1003.18; 3945.325;  240.483; 3766.783;-0.02145
1003.73; 3840.325;  238.483; 3661.450;-0.02212
1004.28; 3742.992;  226.817; 3584.450;-0.02004
1004.83; 3671.992;  209.483; 3488.117;-0.02370
1005.38; 3616.658;  210.150; 3420.783;-0.02572
1005.92; 3497.992;  219.150; 3321.783;-0.02399
1006.47; 3421.658;  236.817; 3231.783;-0.02670
1007.02; 3364.992;  235.483; 3140.117;-0.03238
1007.57; 3291.992;  222.817; 3087.450;-0.02995
1008.11; 3226.992;  211.817; 3028.450;-0.02958
1008.66; 3139.658;  205.150; 2973.450;-0.02532
1009.21; 3050.325;  192.483; 2907.783;-0.02222
1009.75; 2958.658;  177.817; 2862.117;-0.01535
1010.30; 2896.992;  170.150; 2793.117;-0.01687
1010.85; 2842.325;  176.817; 2712.783;-0.02164
1011.40; 2795.325;  204.150; 2628.450;-0.02891
1011.94; 2717.325;  221.817; 2545.783;-0.03093
1012.49; 2640.325;  216.483; 2464.450;-0.03271
1013.04; 2507.992;  194.150; 2362.117;-0.02828
1013.58; 2423.992;  184.150; 2325.117;-0.01961
1014.13; 2385.658;  188.483; 2268.117;-0.02388
1014.68; 2337.325;  196.483; 2233.450;-0.02160
1015.23; 2271.992;  203.150; 2181.450;-0.01944
1015.77; 2189.325;  199.817; 2113.117;-0.01696
1016.32; 2135.992;  204.817; 2072.450;-0.01453
1016.87; 2080.325;  209.483; 2012.783;-0.01597
1017.41; 2028.658;  206.817; 1977.450;-0.01238
1017.96; 1980.658;  194.817; 1953.450;-0.00667
1018.50; 1949.325;  186.483; 1926.450;-0.00567
1019.05; 1905.325;  188.483; 1903.450;-0.00047
1019.60; 1833.658;  182.817; 1815.783;-0.00473
1020.14; 1805.658;  196.150; 1752.783;-0.01451
1020.69; 1769.658;  196.150; 1698.117;-0.02021
1021.24; 1770.658;  209.483; 1650.450;-0.03480
1021.78; 1712.658;  188.483; 1620.450;-0.02710
1022.33; 1648.325;  190.150; 1592.450;-0.01697
1022.87; 1592.325;  182.817; 1587.783;-0.00140
1023.42; 1537.658;  198.150; 1567.117; 0.00945
1023.97; 1507.325;  200.150; 1516.117; 0.00291
1024.51; 1464.325;  212.150; 1465.117; 0.00027
1025.06; 1435.658;  200.483; 1401.117;-0.01232
1025.60; 1417.658;  198.817; 1340.783;-0.02829
1026.15; 1398.325;  181.150; 1307.783;-0.03357
1026.70; 1369.658;  185.483; 1284.783;-0.03230
1027.24; 1341.658;  195.483; 1279.783;-0.02410
1027.79; 1310.658;  200.483; 1270.450;-0.01602
1028.33; 1294.325;  197.483; 1252.450;-0.01691
1028.88; 1259.992;  188.817; 1215.450;-0.01845
1029.42; 1227.658;  208.150; 1198.450;-0.01262
1029.97; 1191.658;  197.817; 1156.450;-0.01566
1030.51; 1154.658;  190.150; 1127.117;-0.01258
1031.06; 1173.658;  182.817; 1088.783;-0.03889
1031.61; 1137.992;  192.483; 1063.117;-0.03583
1032.15; 1139.992;  210.150; 1050.450;-0.04397
1032.70; 1094.658;  202.817; 1024.117;-0.03579
1033.24; 1085.325;  206.483; 1018.117;-0.03455
1033.79; 1072.658;  200.817; 1020.450;-0.02682
1034.33; 1044.325;  199.817; 1016.450;-0.01458
1034.88; 1033.325;  201.817; 1008.783;-0.01301
1035.42; 1009.992;  202.817;  979.450;-0.01675
1035.97;  996.658;  204.483;  950.450;-0.02610
1036.51;  985.658;  206.483;  931.450;-0.03132
1037.06;  963.658;  200.817;  944.117;-0.01127
1037.60;  973.992;  207.150;  948.783;-0.01452
1038.14;  956.325;  204.150;  928.783;-0.01620
1038.69;  980.325;  222.150;  927.783;-0.03119
1039.23;  972.992;  234.483;  935.783;-0.02245
1039.78;  981.992;  235.150;  948.783;-0.01975
1040.32;  954.992;  224.483;  915.783;-0.02396
1040.87;  945.992;  208.483;  887.117;-0.03613
1041.41;  927.992;  198.150;  864.117;-0.03978
1041.96;  916.992;  200.817;  882.783;-0.02126
1042.50;  896.325;  197.817;  893.117;-0.00200
1043.04;  890.992;  213.817;  899.117; 0.00518
1043.59;  896.658;  217.150;  867.450;-0.01908
1044.13;  901.658;  212.483;  869.450;-0.02079
1044.68;  897.992;  205.817;  862.117;-0.02311
1045.22;  880.325;  199.150;  873.783;-0.00419
1045.76;  874.992;  201.817;  869.450;-0.00359
1046.31;  857.325;  193.483;  861.783; 0.00291
1046.85;  858.992;  200.483;  842.117;-0.01127
1047.40;  833.658;  202.483;  813.783;-0.01390
1047.94;  835.325;  215.150;  808.783;-0.01900
1048.48;  838.658;  211.150;  810.117;-0.02022
1049.03;  850.658;  214.483;  793.450;-0.04092
1049.57;  874.992;  229.150;  787.117;-0.06352
1050.11;  866.325;  222.817;  774.117;-0.06717
1050.66;  860.325;  218.483;  779.117;-0.05875
1051.20;  832.658;  206.483;  794.450;-0.02734
1051.74;  814.658;  200.817;  788.117;-0.01920
1052.29;  788.992;  200.150;  780.783;-0.00610
1052.83;  777.992;  199.150;  748.117;-0.02301
1053.37;  768.325;  224.817;  744.783;-0.01923
1053.92;  772.992;  234.150;  739.783;-0.02763
1054.46;  759.992;  236.483;  734.117;-0.02201
1055.00;  785.992;  231.483;  739.117;-0.03836
1055.55;  777.992;  230.817;  738.117;-0.03286
1056.09;  776.325;  223.817;  747.783;-0.02304
1056.63;  721.325;  215.817;  711.783;-0.00828
1057.17;  714.658;  216.483;  709.117;-0.00486
1057.72;  711.658;  225.150;  697.450;-0.01287
1058.26;  723.658;  223.483;  705.783;-0.01580
1058.80;  718.325;  229.817;  700.450;-0.01619
1059.35;  695.658;  230.483;  686.450;-0.00868
1059.89;  687.658;  230.150;  672.450;-0.01468
1060.43;  681.325;  227.817;  654.783;-0.02619
1060.97;  670.658;  223.817;  667.117;-0.00346
1061.52;  660.658;  231.150;  682.450; 0.02149
1062.06;  660.658;  231.483;  671.450; 0.01079
1062.60;  667.992;  236.483;  658.450;-0.00971
1063.14;  687.325;  232.483;  640.783;-0.04688
1063.69;  653.992;  216.483;  640.117;-0.01400
1064.23;  644.992;  208.817;  619.783;-0.02585
1064.77;  604.992;  200.483;  598.450;-0.00708
1065.31;  604.658;  201.817;  577.450;-0.03037
1065.85;  592.325;  206.483;  567.117;-0.02934
1066.40;  592.325;  205.150;  579.450;-0.01469
1066.94;  584.658;  217.817;  579.117;-0.00661
1067.48;  591.992;  209.150;  587.783;-0.00480
1068.02;  583.992;  233.817;  562.450;-0.02757
1068.56;  590.992;  216.817;  564.783;-0.03154
1069.10;  578.992;  212.817;  549.783;-0.03610
1069.65;  572.992;  195.817;  566.450;-0.00760
1070.19;  562.658;  208.817;  566.783; 0.00503
1070.73;  569.325;  223.817;  582.783; 0.01660
1071.27;  564.992;  215.817;  567.117; 0.00264
1071.81;  558.325;  207.150;  562.117; 0.00466
1072.35;  553.992;  201.817;  549.117;-0.00605
1072.90;  563.325;  197.150;  546.783;-0.02008
1073.44;  569.325;  202.817;  540.117;-0.03607
1073.98;  556.325;  206.150;  531.450;-0.03200
1074.52;  555.658;  224.483;  538.783;-0.02271
1075.06;  539.658;  218.483;  542.450; 0.00376
1075.60;  534.325;  207.483;  531.450;-0.00384
1076.14;  529.992;  204.817;  514.117;-0.02174
1076.68;  530.658;  207.150;  504.450;-0.03669
1077.22;  532.992;  225.817;  504.783;-0.04183
1077.76;  507.658;  214.817;  498.117;-0.01439
1078.31;  512.992;  229.817;  499.783;-0.02074
1078.85;  514.325;  226.483;  517.117; 0.00419
1079.39;  526.658;  243.817;  525.450;-0.00186
1079.93;  529.325;  237.817;  507.783;-0.03334
1080.47;  516.658;  227.483;  476.450;-0.06502
1081.01;  525.325;  216.150;  474.783;-0.07752
1081.55;  521.992;  208.483;  488.783;-0.04863
1082.09;  526.658;  205.817;  488.783;-0.05456
1082.63;  526.658;  210.150;  496.450;-0.04356
1083.17;  527.658;  221.150;  500.783;-0.03985
1083.71;  521.325;  228.817;  501.450;-0.03056
1084.25;  498.325;  224.483;  471.117;-0.04545
1084.79;  483.325;  214.483;  446.450;-0.06407
1085.33;  474.658;  202.817;  450.783;-0.03992
1085.87;  482.658;  199.483;  468.450;-0.02236
1086.41;  489.992;  214.483;  471.450;-0.03026
1086.95;  487.992;  222.150;  467.117;-0.03552
1087.49;  474.992;  225.817;  454.783;-0.03673
1088.03;  457.992;  216.817;  454.117;-0.00703
1088.57;  450.658;  219.817;  450.783; 0.00024
1089.11;  458.325;  222.150;  448.117;-0.01919
1089.65;  474.658;  233.150;  458.783;-0.02953
1090.19;  464.658;  238.483;  468.117; 0.00659
1090.73;  458.325;  240.483;  471.783; 0.02603
1091.27;  449.992;  238.817;  466.117; 0.03196
1091.81;  483.325;  238.483;  458.117;-0.04719
1092.35;  493.325;  247.483;  461.450;-0.06031
1092.89;  491.658;  232.150;  457.450;-0.06139
1093.43;  469.658;  223.817;  445.783;-0.04437
1093.97;  460.325;  210.150;  441.117;-0.03469
1094.51;  443.658;  208.483;  440.450;-0.00597
1095.04;  438.658;  218.483;  442.783; 0.00806
1095.58;  421.658;  238.817;  436.783; 0.03452
1096.12;  434.658;  242.817;  428.783;-0.01351
1096.66;  444.658;  239.817;  430.450;-0.03122
1097.20;  452.325;  235.817;  449.450;-0.00581
1097.74;  460.658;  246.817;  456.783;-0.00794
1098.28;  444.992;  235.817;  457.117; 0.02447
1098.82;  454.325;  230.483;  453.117;-0.00235
1099.36;  445.992;  228.150;  446.450; 0.00091
1099.89;  454.992;  230.150;  447.450;-0.01482

