
Integration time [ms]:   0.300
Averaging Nr. [scans]: 1
Smoothing Nr. [pixels]: 1
Data measured with spectrometer [name]: 1906252U1
Wave   ;Sample   ;Dark     ;Reference;Absorbance
[nm]   ;[counts] ;[counts] ;[counts] ;[A.U]

 161.30;  287.389;  271.207;  271.637; 0.00000
 161.90;  265.739;  265.524;  261.712; 0.00000
 162.51;  273.772;  259.038;  260.433;-1.02398
 163.11;  280.186;  265.693;  251.834; 0.00000
 163.71;  275.482;  276.696;  266.803; 0.00000
 164.31;  267.150;  294.270;  273.488; 0.00000
 164.91;  275.749;  288.393;  287.410; 0.00000
 165.52;  283.619;  277.299;  279.261;-0.50806
 166.12;  270.105;  271.979;  273.718; 5.00000
 166.72;  267.481;  272.971;  259.755; 0.00000
 167.32;  271.427;  271.656;  271.040; 0.00000
 167.93;  280.590;  261.266;  267.518;-0.49010
 168.53;  272.693;  254.112;  260.296;-0.47783
 169.13;  274.980;  264.427;  257.261; 0.00000
 169.73;  288.404;  271.677;  266.351; 0.00000
 170.33;  319.170;  291.614;  320.561; 0.02139
 170.94;  337.140;  317.756;  347.746; 0.18953
 171.54;  347.494;  335.278;  387.239; 0.62877
 172.14;  354.781;  338.926;  375.538; 0.36346
 172.74;  353.773;  324.358;  373.181; 0.22005
 173.34;  343.818;  319.589;  355.569; 0.17173
 173.95;  323.844;  309.596;  343.923; 0.38187
 174.55;  326.149;  318.289;  355.228; 0.67205
 175.15;  350.741;  320.689;  367.155; 0.18926
 175.75;  355.127;  322.370;  380.195; 0.24682
 176.35;  358.943;  332.415;  382.036; 0.27196
 176.95;  351.118;  327.740;  392.907; 0.44522
 177.56;  356.895;  327.608;  398.355; 0.38303
 178.16;  338.187;  316.738;  399.298; 0.58536
 178.76;  340.396;  316.306;  398.487; 0.53293
 179.36;  340.272;  310.874;  401.343; 0.48819
 179.96;  358.087;  304.800;  395.813; 0.23248
 180.56;  367.235;  308.938;  392.969; 0.15879
 181.17;  365.023;  318.009;  403.448; 0.25943
 181.77;  376.079;  318.897;  417.181; 0.23522
 182.37;  361.014;  306.653;  404.111; 0.25353
 182.97;  401.025;  319.309;  413.789; 0.06303
 183.57;  399.188;  323.525;  427.944; 0.13989
 184.17;  434.023;  336.736;  473.104; 0.14666
 184.78;  429.514;  316.624;  484.587; 0.17256
 185.38;  442.753;  315.012;  504.833; 0.17201
 185.98;  450.871;  315.783;  504.638; 0.14551
 186.58;  442.008;  316.598;  510.449; 0.18914
 187.18;  457.229;  313.002;  491.678; 0.09302
 187.78;  477.283;  324.256;  526.070; 0.12018
 188.38;  500.708;  331.840;  541.159; 0.09326
 188.98;  493.414;  337.804;  574.199; 0.18160
 189.59;  473.766;  332.575;  567.529; 0.22118
 190.19;  480.976;  326.870;  580.708; 0.21674
 190.79;  484.528;  326.914;  573.939; 0.19515
 191.39;  493.857;  317.159;  564.285; 0.14569
 191.99;  490.619;  322.498;  545.363; 0.12242
 192.59;  487.862;  317.307;  539.929; 0.11570
 193.19;  471.958;  313.765;  525.712; 0.12704
 193.79;  467.518;  325.164;  530.280; 0.15863
 194.39;  460.591;  328.250;  517.658; 0.15570
 195.00;  449.430;  327.216;  511.139; 0.17751
 195.60;  431.677;  305.566;  480.732; 0.14270
 196.20;  416.736;  304.088;  469.473; 0.16677
 196.80;  417.261;  305.278;  453.989; 0.12319
 197.40;  420.112;  313.686;  455.186; 0.12371
 198.00;  409.037;  320.693;  452.457; 0.17362
 198.60;  393.203;  317.270;  442.943; 0.21881
 199.20;  356.455;  312.435;  427.513; 0.41734
 199.80;  353.715;  303.957;  416.753; 0.35543
 200.40;  344.160;  299.492;  396.868; 0.33846
 201.00;  350.042;  293.841;  371.434; 0.14008
 201.60;  339.338;  292.845;  340.403; 0.00984
 202.21;  333.506;  298.995;  352.240; 0.18833
 202.81;  319.165;  303.760;  367.883; 0.61936
 203.41;  318.220;  301.801;  377.921; 0.66616
 204.01;  302.576;  296.447;  373.611; 1.10003
 204.61;  312.440;  287.965;  374.799; 0.54997
 205.21;  325.321;  280.528;  391.328; 0.39333
 205.81;  334.903;  276.000;  394.567; 0.30382
 206.41;  325.327;  281.190;  389.667; 0.39053
 207.01;  309.824;  291.585;  373.516; 0.65244
 207.61;  303.852;  290.832;  349.221; 0.65172
 208.21;  309.061;  294.007;  340.088; 0.48586
 208.81;  315.354;  285.376;  350.048; 0.33391
 209.41;  311.899;  292.971;  355.294; 0.51753
 210.01;  315.083;  286.985;  361.835; 0.42551
 210.61;  326.246;  290.534;  351.990; 0.23575
 211.21;  332.495;  293.399;  356.219; 0.20597
 211.81;  324.229;  300.157;  352.258; 0.33534
 212.41;  310.149;  301.896;  344.513; 0.71298
 213.01;  308.236;  296.332;  351.625; 0.66698
 213.61;  311.278;  285.263;  357.339; 0.44256
 214.21;  304.368;  282.939;  368.411; 0.60084
 214.81;  299.693;  278.704;  361.387; 0.59543
 215.41;  301.622;  282.466;  362.645; 0.62175
 216.01;  300.497;  278.247;  362.189; 0.57665
 216.61;  306.089;  287.920;  357.792; 0.58499
 217.21;  301.342;  290.599;  357.391; 0.79362
 217.81;  298.425;  297.221;  367.800; 1.76818
 218.41;  299.043;  301.628;  379.081; 5.00000
 219.01;  307.452;  307.801;  388.505; 5.00000
 219.61;  319.188;  301.739;  384.906; 0.67819
 220.21;  325.810;  297.568;  378.507; 0.45727
 220.81;  324.691;  283.737;  372.713; 0.33698
 221.41;  320.335;  284.091;  376.024; 0.40424
 222.01;  327.366;  280.426;  372.049; 0.29046
 222.61;  318.419;  298.953;  367.451; 0.54639
 223.21;  323.039;  301.813;  357.103; 0.41579
 223.81;  315.954;  301.952;  360.676; 0.62262
 224.41;  315.606;  281.875;  343.618; 0.26257
 225.01;  303.253;  269.317;  340.250; 0.32019
 225.61;  301.349;  274.108;  341.033; 0.39036
 226.21;  301.878;  273.112;  349.918; 0.42652
 226.81;  304.128;  286.490;  349.175; 0.55072
 227.41;  312.903;  284.059;  344.282; 0.31970
 228.01;  323.878;  302.172;  351.241; 0.35423
 228.61;  339.803;  306.727;  360.474; 0.21084
 229.21;  322.028;  303.825;  362.700; 0.50980
 229.81;  321.771;  308.998;  372.791; 0.69850
 230.41;  313.374;  299.055;  383.396; 0.77011
 231.01;  317.913;  300.808;  405.942; 0.78863
 231.61;  300.397;  287.307;  401.095; 0.93917
 232.21;  320.141;  300.328;  383.489; 0.62296
 232.81;  322.932;  296.307;  370.928; 0.44758
 233.41;  344.000;  302.578;  372.995; 0.23045
 234.00;  328.572;  298.240;  379.918; 0.43021
 234.60;  316.599;  290.487;  363.623; 0.44728
 235.20;  308.234;  295.152;  359.264; 0.69024
 235.80;  300.072;  295.330;  365.432; 1.16972
 236.40;  312.361;  302.765;  379.044; 0.90032
 237.00;  316.459;  303.584;  384.824; 0.79999
 237.60;  317.601;  294.000;  377.651; 0.54954
 238.20;  317.835;  295.121;  389.214; 0.61727
 238.80;  306.978;  274.112;  389.668; 0.54604
 239.40;  333.741;  279.177;  403.402; 0.35731
 240.00;  328.310;  284.599;  402.640; 0.43143
 240.59;  339.956;  298.133;  401.312; 0.39218
 241.19;  323.380;  297.989;  399.745; 0.60289
 241.79;  323.354;  288.710;  384.715; 0.44266
 242.39;  324.224;  292.222;  383.909; 0.45714
 242.99;  331.762;  286.642;  375.121; 0.29248
 243.59;  324.381;  289.230;  388.763; 0.45202
 244.19;  316.525;  286.160;  385.560; 0.51502
 244.79;  305.307;  287.511;  384.652; 0.73708
 245.39;  313.213;  287.293;  395.554; 0.62084
 245.98;  310.444;  273.053;  391.453; 0.50059
 246.58;  301.933;  274.487;  389.290; 0.62147
 247.18;  314.658;  285.342;  384.364; 0.52862
 247.78;  324.070;  295.696;  398.758; 0.56018
 248.38;  345.480;  288.656;  421.162; 0.36770
 248.98;  339.610;  277.356;  419.988; 0.36005
 249.58;  340.627;  265.673;  430.671; 0.34269
 250.17;  340.489;  275.285;  426.842; 0.36630
 250.77;  338.278;  283.143;  431.967; 0.43125
 251.37;  338.046;  286.929;  425.089; 0.43182
 251.97;  327.779;  270.293;  429.805; 0.44323
 252.57;  340.207;  265.298;  436.882; 0.35994
 253.17;  329.813;  272.929;  449.172; 0.49112
 253.77;  335.264;  284.186;  466.282; 0.55207
 254.36;  328.447;  295.474;  468.774; 0.72064
 254.96;  331.903;  295.333;  480.567; 0.70459
 255.56;  340.305;  288.604;  484.301; 0.57809
 256.16;  339.861;  278.462;  506.509; 0.56986
 256.76;  336.793;  277.524;  496.109; 0.56680
 257.36;  314.961;  276.735;  508.603; 0.78288
 257.95;  305.412;  264.992;  503.713; 0.77130
 258.55;  315.106;  264.239;  518.084; 0.69813
 259.15;  325.483;  260.564;  510.454; 0.58538
 259.75;  330.357;  269.345;  523.998; 0.62053
 260.35;  324.628;  267.461;  538.318; 0.67559
 260.94;  323.033;  268.819;  539.764; 0.69877
 261.54;  319.717;  275.530;  547.771; 0.78966
 262.14;  323.073;  279.723;  553.422; 0.80029
 262.74;  336.510;  296.084;  592.169; 0.86476
 263.34;  344.937;  285.302;  604.600; 0.72869
 263.93;  346.214;  271.414;  619.201; 0.66741
 264.53;  358.795;  269.158;  628.783; 0.60336
 265.13;  351.891;  270.950;  628.566; 0.64525
 265.73;  355.134;  275.426;  648.466; 0.67026
 266.33;  347.747;  278.566;  678.397; 0.76189
 266.92;  349.705;  275.029;  689.673; 0.74449
 267.52;  346.420;  279.954;  705.726; 0.80658
 268.12;  344.279;  273.264;  717.281; 0.79605
 268.72;  352.489;  281.951;  749.175; 0.82111
 269.31;  365.146;  293.596;  782.505; 0.83461
 269.91;  342.674;  296.813;  783.686; 1.02597
 270.51;  339.764;  298.884;  823.747; 1.10853
 271.11;  334.717;  296.018;  844.685; 1.15162
 271.70;  334.368;  281.274;  877.686; 1.05050
 272.30;  337.577;  270.568;  887.924; 0.96440
 272.90;  335.740;  264.784;  909.412; 0.95832
 273.50;  352.206;  274.785;  916.521; 0.91850
 274.09;  348.874;  285.359;  947.539; 1.01809
 274.69;  361.001;  293.425;  961.690; 0.99515
 275.29;  371.364;  297.126; 1011.041; 0.98302
 275.89;  389.859;  301.162; 1057.168; 0.93062
 276.48;  400.419;  306.441; 1108.365; 0.93111
 277.08;  392.400;  303.217; 1149.330; 0.97715
 277.68;  385.653;  300.562; 1156.928; 1.00278
 278.28;  368.776;  297.934; 1188.748; 1.09949
 278.87;  402.571;  305.120; 1219.213; 0.97221
 279.47;  427.395;  316.402; 1279.019; 0.93816
 280.07;  446.917;  311.564; 1306.537; 0.86634
 280.66;  434.179;  305.599; 1329.806; 0.90121
 281.26;  443.319;  299.502; 1356.605; 0.86631
 281.86;  453.516;  299.353; 1408.460; 0.85699
 282.46;  463.048;  289.111; 1464.667; 0.82985
 283.05;  475.570;  270.001; 1525.842; 0.78598
 283.65;  477.644;  269.267; 1577.248; 0.79775
 284.25;  494.379;  276.537; 1628.707; 0.79289
 284.84;  506.132;  297.639; 1660.819; 0.81546
 285.44;  546.359;  304.585; 1722.349; 0.76819
 286.04;  564.647;  306.626; 1767.304; 0.75290
 286.63;  574.204;  299.604; 1827.551; 0.74541
 287.23;  579.908;  285.934; 1878.582; 0.73381
 287.83;  592.650;  285.987; 1956.635; 0.73622
 288.42;  609.495;  282.947; 2012.456; 0.72398
 289.02;  625.717;  281.018; 2081.351; 0.71791
 289.62;  657.700;  274.153; 2105.373; 0.67892
 290.21;  683.541;  278.965; 2173.882; 0.67059
 290.81;  720.850;  296.139; 2171.832; 0.64507
 291.41;  724.961;  301.675; 2217.279; 0.65567
 292.00;  735.271;  287.695; 2273.257; 0.64702
 292.60;  758.272;  266.816; 2355.570; 0.62840
 293.20;  783.978;  269.053; 2441.953; 0.62530
 293.79;  825.205;  275.331; 2498.541; 0.60672
 294.39;  825.110;  284.326; 2544.463; 0.62111
 294.99;  843.757;  280.435; 2588.095; 0.61241
 295.58;  871.648;  284.687; 2619.961; 0.59973
 296.18;  908.927;  271.100; 2672.236; 0.57571
 296.78;  955.215;  267.474; 2741.524; 0.55598
 297.37;  976.260;  256.039; 2819.912; 0.55143
 297.97;  996.126;  255.858; 2927.442; 0.55738
 298.57; 1025.570;  262.727; 2989.557; 0.55322
 299.16; 1038.440;  278.359; 3083.789; 0.56714
 299.76; 1098.682;  281.775; 3176.366; 0.54941
 300.35; 1115.034;  281.214; 3269.362; 0.55433
 300.95; 1155.458;  278.404; 3324.462; 0.54071
 301.55; 1170.149;  287.229; 3346.846; 0.53975
 302.14; 1193.989;  278.314; 3431.366; 0.53699
 302.74; 1257.821;  277.164; 3537.862; 0.52179
 303.33; 1319.878;  277.506; 3665.575; 0.51193
 303.93; 1373.242;  284.053; 3763.621; 0.50442
 304.53; 1400.689;  290.889; 3809.743; 0.50116
 305.12; 1437.701;  285.666; 3889.067; 0.49525
 305.72; 1511.388;  304.345; 3962.749; 0.48157
 306.31; 1545.456;  292.556; 4062.826; 0.47846
 306.91; 1562.533;  290.122; 4183.574; 0.48571
 307.51; 1599.035;  280.000; 4278.734; 0.48167
 308.10; 1667.354;  295.710; 4394.048; 0.47537
 308.70; 1721.358;  291.190; 4468.751; 0.46554
 309.29; 1741.402;  287.634; 4547.826; 0.46693
 309.89; 1790.942;  264.902; 4638.675; 0.45729
 310.48; 1868.061;  273.673; 4739.754; 0.44733
 311.08; 1960.419;  268.620; 4876.118; 0.43512
 311.68; 1993.324;  273.221; 4959.384; 0.43526
 312.27; 2010.894;  278.703; 5074.278; 0.44224
 312.87; 2018.479;  271.869; 5225.848; 0.45276
 313.46; 2062.975;  276.691; 5385.013; 0.45633
 314.06; 2118.522;  276.193; 5529.885; 0.45510
 314.65; 2199.873;  282.238; 5632.559; 0.44561
 315.25; 2264.247;  283.262; 5774.255; 0.44277
 315.85; 2320.868;  277.637; 5914.876; 0.44075
 316.44; 2399.931;  287.913; 6071.938; 0.43753
 317.04; 2455.655;  295.255; 6216.984; 0.43791
 317.63; 2538.996;  310.823; 6400.341; 0.43663
 318.23; 2606.257;  298.737; 6546.296; 0.43257
 318.82; 2708.859;  293.221; 6674.883; 0.42190
 319.42; 2777.532;  273.276; 6781.545; 0.41479
 320.01; 2822.940;  280.055; 6929.646; 0.41747
 320.61; 2879.307;  290.511; 7164.652; 0.42412
 321.20; 2952.637;  285.758; 7272.939; 0.41830
 321.80; 3040.390;  292.860; 7497.718; 0.41868
 322.39; 3088.832;  275.154; 7636.540; 0.41769
 322.99; 3140.170;  275.755; 7857.556; 0.42274
 323.58; 3223.511;  286.597; 7977.531; 0.41809
 324.18; 3319.678;  287.901; 8124.673; 0.41244
 324.77; 3384.002;  292.485; 8318.013; 0.41430
 325.37; 3449.486;  278.984; 8442.167; 0.41073
 325.96; 3518.957;  276.253; 8588.958; 0.40884
 326.56; 3643.424;  298.768; 8771.095; 0.40365
 327.15; 3712.096;  300.036; 8947.778; 0.40389
 327.75; 3773.850;  300.925; 9129.536; 0.40520
 328.34; 3858.840;  272.723; 9291.838; 0.40054
 328.94; 3940.257;  266.072; 9447.905; 0.39777
 329.53; 4007.229;  277.765; 9658.876; 0.40061
 330.13; 4035.461;  293.098; 9872.460; 0.40819
 330.72; 4038.196;  297.428;10112.576; 0.41894
 331.32; 4140.679;  296.807;10347.750; 0.41744
 331.91; 4258.345;  286.021;10578.045; 0.41346
 332.51; 4424.106;  290.846;10832.428; 0.40661
 333.10; 4537.701;  280.941;11112.686; 0.40562
 333.69; 4610.878;  268.720;11343.870; 0.40664
 334.29; 4608.981;  259.020;11372.294; 0.40736
 334.88; 4591.925;  263.526;11404.218; 0.41058
 335.48; 4632.870;  274.151;11347.513; 0.40492
 336.07; 4699.038;  277.361;11521.065; 0.40532
 336.67; 4731.395;  271.793;11561.792; 0.40340
 337.26; 4725.007;  270.478;11724.744; 0.41017
 337.86; 4770.041;  274.661;11795.073; 0.40870
 338.45; 4846.547;  285.081;11996.201; 0.40949
 339.04; 4922.063;  280.248;12122.714; 0.40675
 339.64; 4942.830;  279.247;12324.855; 0.41211
 340.23; 4978.504;  276.541;12444.594; 0.41294
 340.83; 5044.909;  283.446;12579.002; 0.41201
 341.42; 5152.397;  284.034;12728.085; 0.40758
 342.02; 5206.378;  280.810;12860.717; 0.40722
 342.61; 5240.434;  285.029;12994.842; 0.40906
 343.20; 5286.925;  280.703;13173.363; 0.41083
 343.80; 5337.440;  275.024;13326.514; 0.41130
 344.39; 5401.056;  277.525;13574.777; 0.41419
 344.99; 5442.862;  284.701;13698.586; 0.41506
 345.58; 5582.276;  281.629;13941.331; 0.41111
 346.17; 5647.234;  272.425;14086.941; 0.40997
 346.77; 5757.807;  263.601;14425.499; 0.41122
 347.36; 5829.726;  267.766;14640.403; 0.41231
 347.96; 5916.401;  271.456;14918.073; 0.41408
 348.55; 6043.058;  272.039;15018.413; 0.40743
 349.14; 6058.568;  269.152;15148.264; 0.40994
 349.74; 6153.290;  282.193;15379.635; 0.41018
 350.33; 6164.612;  292.264;15619.281; 0.41665
 350.92; 6276.736;  292.029;15990.758; 0.41882
 351.52; 6350.681;  276.988;16197.719; 0.41851
 352.11; 6419.661;  277.642;16449.038; 0.42044
 352.70; 6517.758;  293.221;16652.467; 0.41966
 353.30; 6559.992;  299.069;16923.354; 0.42410
 353.89; 6686.790;  289.556;17199.826; 0.42216
 354.49; 6752.410;  295.537;17471.125; 0.42489
 355.08; 6873.533;  303.789;17648.240; 0.42161
 355.67; 6960.174;  306.509;17850.877; 0.42108
 356.27; 7109.388;  292.678;18013.082; 0.41490
 356.86; 7221.021;  288.376;18230.048; 0.41296
 357.45; 7346.970;  297.756;18507.331; 0.41216
 358.05; 7392.933;  297.214;18684.613; 0.41352
 358.64; 7448.614;  292.504;18894.298; 0.41488
 359.23; 7484.138;  289.300;19081.825; 0.41696
 359.83; 7593.703;  289.121;19433.380; 0.41844
 360.42; 7681.243;  293.174;19722.600; 0.41993
 361.01; 7707.144;  287.355;19981.487; 0.42395
 361.61; 7750.885;  287.502;20183.522; 0.42583
 362.20; 7856.751;  294.987;20496.718; 0.42677
 362.79; 7962.635;  302.910;20634.303; 0.42395
 363.38; 8047.828;  301.613;20815.514; 0.42296
 363.98; 8105.048;  289.171;20943.715; 0.42204
 364.57; 8161.817;  277.744;21176.149; 0.42336
 365.16; 8231.804;  288.573;21351.502; 0.42352
 365.76; 8324.909;  293.720;21537.287; 0.42245
 366.35; 8408.856;  294.920;21731.542; 0.42192
 366.94; 8501.798;  286.459;21913.791; 0.42038
 367.53; 8488.467;  286.426;22067.466; 0.42416
 368.13; 8570.808;  291.994;22246.489; 0.42356
 368.72; 8582.605;  285.482;22413.295; 0.42601
 369.31; 8684.658;  292.281;22597.374; 0.42452
 369.91; 8711.480;  283.382;22746.877; 0.42575
 370.50; 8781.366;  291.699;22820.059; 0.42384
 371.09; 8808.584;  278.017;22946.909; 0.42445
 371.68; 8912.673;  286.967;23106.324; 0.42251
 372.28; 8999.587;  294.984;23340.584; 0.42284
 372.87; 9085.165;  297.367;23443.502; 0.42060
 373.46; 9054.941;  297.723;23614.255; 0.42530
 374.05; 9112.526;  287.889;23758.158; 0.42482
 374.65; 9175.519;  290.440;23950.173; 0.42535
 375.24; 9312.026;  272.918;24146.349; 0.42179
 375.83; 9414.370;  275.848;24331.370; 0.42034
 376.42; 9504.867;  273.516;24515.563; 0.41930
 377.02; 9511.804;  293.907;24527.502; 0.41979
 377.61; 9534.312;  288.112;24762.668; 0.42275
 378.20; 9651.113;  297.747;24944.118; 0.42079
 378.79; 9761.553;  297.015;25086.217; 0.41816
 379.38; 9819.459;  282.191;25204.109; 0.41716
 379.98; 9849.170;  267.243;25344.469; 0.41783
 380.57; 9983.746;  272.112;25606.751; 0.41642
 381.16;10083.764;  291.609;25727.129; 0.41456
 381.75;10151.454;  289.589;25767.151; 0.41220
 382.35;10195.561;  283.703;25937.612; 0.41300
 382.94;10217.979;  271.231;26182.039; 0.41580
 383.53;10385.039;  279.541;26558.760; 0.41505
 384.12;10502.926;  269.432;26865.627; 0.41480
 384.71;10657.326;  284.069;27028.687; 0.41132
 385.31;10689.164;  287.699;27353.893; 0.41533
 385.90;10838.362;  299.731;27598.110; 0.41335
 386.49;10999.931;  283.306;27919.987; 0.41143
 387.08;11153.895;  296.763;28085.602; 0.40816
 387.67;11290.883;  302.047;28384.267; 0.40748
 388.26;11444.691;  312.463;28670.094; 0.40609
 388.86;11659.346;  297.866;29041.131; 0.40310
 389.45;11821.143;  285.685;29324.329; 0.40094
 390.04;11957.615;  279.860;29566.863; 0.39932
 390.63;12046.015;  284.795;29878.048; 0.40074
 391.22;12156.619;  294.422;30097.179; 0.40009
 391.81;12268.660;  303.408;30368.117; 0.40014
 392.41;12429.899;  324.211;30517.642; 0.39692
 393.00;12596.196;  349.022;30747.606; 0.39482
 393.59;12788.097;  379.676;31111.212; 0.39387
 394.18;12907.967;  399.780;31505.223; 0.39564
 394.77;13004.432;  433.703;31930.599; 0.39891
 395.36;13109.536;  473.557;32244.356; 0.40042
 395.95;13183.170;  524.323;32561.017; 0.40325
 396.55;13300.577;  566.236;32856.406; 0.40409
 397.14;13486.982;  594.577;33298.717; 0.40427
 397.73;13708.769;  601.786;33627.642; 0.40135
 398.32;13952.233;  612.294;34204.404; 0.40108
 398.91;14175.411;  621.039;34614.988; 0.39932
 399.50;14483.295;  632.059;35200.379; 0.39719
 400.09;14766.242;  605.452;35675.306; 0.39385
 400.68;15012.831;  582.293;36366.134; 0.39440
 401.27;15238.116;  548.561;37014.694; 0.39488
 401.87;15519.432;  525.771;37604.957; 0.39322
 402.46;15845.699;  501.053;38119.893; 0.38945
 403.05;16114.569;  484.389;38675.942; 0.38800
 403.64;16382.459;  490.521;39240.769; 0.38710
 404.23;16594.490;  484.797;39841.080; 0.38793
 404.82;16868.787;  502.588;40438.695; 0.38742
 405.41;17092.277;  491.629;41140.816; 0.38893
 406.00;17386.860;  497.890;41752.976; 0.38787
 406.59;17695.813;  479.966;42383.807; 0.38633
 407.18;18001.149;  482.149;42943.385; 0.38448
 407.77;18255.474;  466.520;43500.038; 0.38366
 408.37;18499.739;  484.641;43973.019; 0.38274
 408.96;18692.556;  491.806;44465.898; 0.38311
 409.55;18897.953;  504.476;44970.283; 0.38336
 410.14;19085.857;  481.626;45459.452; 0.38339
 410.73;19359.883;  490.299;45905.805; 0.38144
 411.32;19612.173;  492.855;46441.730; 0.38080
 411.91;19898.060;  505.687;47060.216; 0.38033
 412.50;20115.512;  480.732;47624.639; 0.38040
 413.09;20314.662;  484.505;48110.411; 0.38052
 413.68;20484.872;  482.467;48573.257; 0.38098
 414.27;20686.533;  487.472;48936.919; 0.37996
 414.86;20862.269;  462.470;49236.309; 0.37856
 415.45;21035.078;  452.555;49687.411; 0.37877
 416.04;21221.105;  462.743;50083.734; 0.37847
 416.63;21314.650;  468.551;50542.275; 0.38059
 417.22;21423.069;  461.867;50754.683; 0.38009
 417.81;21471.549;  462.159;51068.477; 0.38179
 418.40;21691.094;  476.694;51393.675; 0.38023
 418.99;21811.311;  477.832;51737.830; 0.38072
 419.58;21961.588;  462.218;51969.382; 0.37944
 420.17;22136.282;  452.952;52248.392; 0.37817
 420.76;22217.077;  458.593;52499.836; 0.37872
 421.35;22279.009;  472.988;53005.769; 0.38185
 421.94;22226.414;  474.287;53203.501; 0.38455
 422.53;22313.236;  469.601;53402.299; 0.38440
 423.12;22452.124;  471.552;53493.823; 0.38242
 423.71;22502.197;  463.366;53670.857; 0.38278
 424.30;22580.535;  471.573;53819.883; 0.38255
 424.89;22513.325;  477.611;53888.037; 0.38450
 425.48;22560.359;  477.854;53974.356; 0.38428
 426.07;22421.086;  465.438;53940.695; 0.38661
 426.66;22370.262;  460.097;54040.507; 0.38836
 427.25;22251.221;  453.014;53995.096; 0.39027
 427.84;22276.534;  450.549;53912.043; 0.38907
 428.43;22204.939;  452.848;53711.442; 0.38889
 429.02;22101.389;  457.772;53797.552; 0.39172
 429.61;21941.314;  448.720;53826.107; 0.39507
 430.20;21840.672;  425.820;53758.443; 0.39628
 430.79;21726.139;  437.001;53531.580; 0.39689
 431.38;21660.790;  442.471;53315.543; 0.39652
 431.97;21449.378;  451.391;53001.434; 0.39840
 432.55;21295.287;  445.807;52690.011; 0.39894
 433.14;21139.689;  441.412;52704.411; 0.40226
 433.73;21043.709;  432.971;52655.054; 0.40376
 434.32;20910.959;  424.624;52606.263; 0.40605
 434.91;20722.435;  423.161;52233.737; 0.40694
 435.50;20571.908;  418.064;51971.869; 0.40790
 436.09;20419.371;  418.432;51687.970; 0.40881
 436.68;20185.065;  422.559;51624.303; 0.41344
 437.27;20081.247;  439.214;51661.122; 0.41627
 437.86;19818.049;  433.576;51508.561; 0.42075
 438.45;19722.143;  436.794;51330.326; 0.42144
 439.04;19513.120;  419.148;51043.637; 0.42346
 439.62;19429.823;  412.025;51000.963; 0.42490
 440.21;19227.933;  413.441;50885.373; 0.42856
 440.80;19056.429;  430.263;51024.538; 0.43398
 441.39;18957.368;  449.560;51081.161; 0.43707
 441.98;18898.857;  447.874;51020.625; 0.43790
 442.57;18763.837;  436.530;50797.219; 0.43899
 443.16;18615.896;  425.660;50702.578; 0.44153
 443.75;18448.260;  431.481;50788.909; 0.44639
 444.33;18308.736;  435.018;50969.383; 0.45137
 444.92;18075.698;  440.355;50892.685; 0.45650
 445.51;17943.715;  417.614;50850.986; 0.45903
 446.10;17841.653;  410.612;51056.876; 0.46322
 446.69;17773.677;  404.712;51275.545; 0.46669
 447.28;17675.871;  420.929;51457.726; 0.47097
 447.87;17543.539;  412.657;51329.383; 0.47308
 448.45;17523.588;  413.036;51412.748; 0.47430
 449.04;17353.501;  390.874;51445.980; 0.47855
 449.63;17259.160;  386.972;51646.289; 0.48260
 450.22;17131.012;  381.501;51835.467; 0.48742
 450.81;17061.097;  386.090;52100.884; 0.49155
 451.40;16925.364;  391.666;52058.120; 0.49484
 451.98;16790.347;  398.229;52052.065; 0.49847
 452.57;16615.757;  403.856;52211.469; 0.50456
 453.16;16474.643;  401.626;52273.023; 0.50883
 453.75;16339.006;  391.994;52359.708; 0.51305
 454.34;16326.004;  388.814;52215.013; 0.51214
 454.93;16279.379;  395.232;52494.699; 0.51587
 455.51;16105.582;  391.805;52615.216; 0.52158
 456.10;15941.498;  402.670;52907.445; 0.52878
 456.69;15801.775;  396.116;53041.712; 0.53368
 457.28;15793.268;  403.304;53288.203; 0.53609
 457.87;15650.078;  395.902;53216.666; 0.53942
 458.45;15492.485;  396.108;53304.691; 0.54465
 459.04;15383.878;  388.965;53401.373; 0.54843
 459.63;15337.008;  395.666;53676.141; 0.55218
 460.22;15275.012;  396.420;53639.128; 0.55370
 460.80;15171.346;  400.600;53692.823; 0.55726
 461.39;15051.075;  392.483;53895.895; 0.56229
 461.98;15044.004;  393.792;54364.115; 0.56631
 462.57;15065.548;  398.874;54782.941; 0.56914
 463.16;15159.575;  397.668;55197.607; 0.56964
 463.74;15187.179;  387.726;55673.212; 0.57237
 464.33;15128.064;  376.102;56213.777; 0.57808
 464.92;15066.673;  370.427;56547.398; 0.58235
 465.51;15009.663;  357.831;56911.710; 0.58657
 466.09;15065.888;  358.204;57352.888; 0.58829
 466.68;15211.477;  361.518;57898.436; 0.58822
 467.27;15239.349;  372.331;58292.638; 0.59061
 467.86;15271.779;  368.243;58560.733; 0.59158
 468.44;15212.976;  363.094;58919.922; 0.59585
 469.03;15199.877;  361.882;59322.152; 0.59918
 469.62;15186.793;  367.807;59788.037; 0.60312
 470.20;15164.120;  365.300;60231.337; 0.60695
 470.79;15235.977;  374.762;60677.863; 0.60829
 471.38;15231.952;  358.816;61146.166; 0.61141
 471.97;15273.195;  359.020;61564.389; 0.61319
 472.55;15271.828;  350.111;61933.679; 0.61565
 473.14;15249.427;  362.234;62406.602; 0.61989
 473.73;15186.398;  355.473;62971.535; 0.62552
 474.31;15127.349;  347.428;63489.444; 0.63065
 474.90;15211.510;  350.797;63899.238; 0.63107
 475.49;15313.177;  352.737;64160.914; 0.62993
 476.07;15353.562;  357.870;64473.326; 0.63100
 476.66;15290.106;  347.892;64752.829; 0.63450
 477.25;15191.317;  340.581;65000.332; 0.63889
 477.84;15204.853;  352.761;65155.193; 0.63980
 478.42;15222.284;  344.733;65155.945; 0.63912
 479.01;15220.674;  344.681;65156.001; 0.63916
 479.60;15196.860;  330.210;65156.511; 0.63954
 480.18;15139.300;  334.265;65158.257; 0.64133
 480.77;15034.877;  342.135;65159.480; 0.64459
 481.35;15027.102;  347.900;65159.373; 0.64495
 481.94;14995.913;  344.738;65159.188; 0.64580
 482.53;15079.327;  335.059;65159.923; 0.64312
 483.11;14955.792;  332.000;65160.709; 0.64671
 483.70;14911.486;  318.067;65161.719; 0.64771
 484.29;14836.450;  316.585;65163.324; 0.64993
 484.87;14858.688;  306.461;65164.542; 0.64903
 485.46;14787.081;  315.710;65164.272; 0.65139
 486.05;14742.373;  319.958;65162.920; 0.65282
 486.63;14597.700;  321.237;65162.258; 0.65723
 487.22;14540.028;  317.302;65162.909; 0.65890
 487.81;14374.511;  323.288;65164.368; 0.66414
 488.39;14331.619;  331.856;65164.474; 0.66567
 488.98;14129.200;  337.207;65163.733; 0.67213
 489.56;14106.278;  317.228;65164.794; 0.67236
 490.15;13985.547;  310.772;65166.371; 0.67603
 490.74;13890.315;  302.771;65167.454; 0.67887
 491.32;13680.334;  305.937;65168.774; 0.68572
 491.91;13436.976;  316.111;64974.057; 0.69266
 492.49;13273.226;  317.823;64712.314; 0.69640
 493.08;13104.365;  332.939;64167.133; 0.69881
 493.67;12999.448;  325.500;63724.219; 0.69917
 494.25;12901.420;  343.920;63105.848; 0.69879
 494.84;12727.002;  335.724;62474.087; 0.70024
 495.42;12535.341;  338.386;61959.759; 0.70348
 496.01;12351.905;  319.873;61399.648; 0.70556
 496.59;12196.045;  310.443;60754.114; 0.70633
 497.18;12087.749;  311.106;60078.479; 0.70544
 497.77;11951.261;  311.733;59331.632; 0.70506
 498.35;11851.438;  326.966;58841.796; 0.70564
 498.94;11690.851;  324.499;58030.218; 0.70560
 499.52;11561.828;  324.914;57567.186; 0.70707
 500.11;11425.599;  311.275;56906.600; 0.70690
 500.69;11298.240;  304.601;56449.246; 0.70817
 501.28;11142.038;  315.149;55764.708; 0.70939
 501.86;11050.485;  317.653;55155.772; 0.70837
 502.45;11007.448;  338.264;54632.693; 0.70662
 503.03;10992.405;  328.939;54106.656; 0.70270
 503.62;10952.813;  339.385;53665.090; 0.70108
 504.20;10890.700;  326.215;53123.968; 0.69877
 504.79;10769.561;  326.766;52666.148; 0.70001
 505.37;10730.263;  326.582;52358.543; 0.69908
 505.96;10702.473;  332.269;51859.105; 0.69625
 506.55;10778.227;  327.706;51491.158; 0.68982
 507.13;10807.519;  315.837;51254.709; 0.68620
 507.72;10888.891;  312.954;51138.387; 0.68176
 508.30;10990.448;  319.265;50944.634; 0.67616
 508.89;11080.301;  316.460;50626.145; 0.66968
 509.47;11173.555;  308.593;50383.056; 0.66359
 510.05;11347.033;  311.037;50305.214; 0.65611
 510.64;11449.681;  312.992;50205.541; 0.65128
 511.22;11595.615;  326.961;50242.492; 0.64636
 511.81;11713.967;  323.186;50282.527; 0.64206
 512.39;11942.716;  329.747;50266.280; 0.63348
 512.98;12118.560;  310.647;50213.110; 0.62595
 513.56;12320.098;  306.947;50200.284; 0.61839
 514.15;12472.674;  297.484;50225.841; 0.61287
 514.73;12698.170;  293.306;50310.339; 0.60553
 515.32;12901.207;  298.909;50412.714; 0.59951
 515.90;13170.641;  306.909;50529.464; 0.59153
 516.49;13380.796;  321.223;50576.262; 0.58525
 517.07;13568.019;  323.415;50501.804; 0.57848
 517.66;13702.846;  325.663;50468.951; 0.57385
 518.24;13906.336;  330.491;50581.443; 0.56838
 518.82;14114.005;  322.791;50433.118; 0.56032
 519.41;14422.482;  321.449;50483.238; 0.55112
 519.99;14730.219;  304.901;50520.942; 0.54172
 520.58;15109.135;  313.039;50964.514; 0.53444
 521.16;15388.117;  316.114;51139.212; 0.52789
 521.75;15696.371;  315.579;51354.849; 0.52093
 522.33;15975.048;  314.722;51552.832; 0.51479
 522.91;16329.369;  303.280;51724.449; 0.50631
 523.50;16619.683;  304.661;51708.091; 0.49840
 524.08;16911.458;  292.957;51816.521; 0.49141
 524.67;17208.442;  296.699;52029.160; 0.48557
 525.25;17546.257;  294.898;52244.306; 0.47876
 525.83;17860.297;  300.195;52281.679; 0.47132
 526.42;18145.280;  299.604;52255.985; 0.46411
 527.00;18433.290;  297.414;52315.968; 0.45762
 527.59;18703.064;  293.742;52194.390; 0.45013
 528.17;19016.474;  296.702;52169.461; 0.44264
 528.75;19222.466;  314.407;52237.781; 0.43872
 529.34;19492.554;  317.963;52410.206; 0.43405
 529.92;19721.041;  322.096;52599.701; 0.43054
 530.50;19977.437;  308.099;52577.086; 0.42445
 531.09;20215.275;  310.277;52580.588; 0.41929
 531.67;20429.744;  319.699;52493.409; 0.41404
 532.25;20710.301;  331.224;52474.618; 0.40801
 532.84;20889.790;  319.265;52286.406; 0.40248
 533.42;21084.511;  303.579;52069.121; 0.39638
 534.00;21237.664;  296.379;51800.283; 0.39084
 534.59;21418.065;  306.923;51692.027; 0.38633
 535.17;21571.679;  307.396;51484.292; 0.38142
 535.75;21775.766;  311.833;51399.345; 0.37661
 536.34;22031.396;  327.170;51106.314; 0.36914
 536.92;22228.750;  323.362;50970.357; 0.36400
 537.50;22357.438;  320.767;50555.361; 0.35786
 538.09;22325.692;  304.234;50224.272; 0.35543
 538.67;22393.095;  307.957;49849.711; 0.35087
 539.25;22469.942;  292.004;49517.578; 0.34627
 539.84;22663.495;  298.382;49195.084; 0.33971
 540.42;22679.868;  287.620;48747.408; 0.33528
 541.00;22715.401;  304.712;48328.615; 0.33100
 541.59;22707.918;  293.453;47996.146; 0.32801
 542.17;22778.099;  303.713;47681.974; 0.32389
 542.75;22895.895;  301.687;47449.085; 0.31946
 543.33;23101.563;  321.928;47035.436; 0.31190
 543.92;23238.913;  322.791;46647.473; 0.30567
 544.50;23289.449;  319.637;46212.001; 0.30058
 545.08;23301.866;  303.653;45900.067; 0.29724
 545.67;23382.331;  304.594;45544.519; 0.29233
 546.25;23503.077;  306.855;45243.598; 0.28718
 546.83;23572.707;  305.919;44881.223; 0.28236
 547.41;23657.115;  307.185;44485.963; 0.27693
 548.00;23635.231;  304.048;44073.416; 0.27323
 548.58;23526.842;  293.554;43651.340; 0.27096
 549.16;23551.808;  273.252;43462.973; 0.26842
 549.74;23651.176;  276.221;43125.006; 0.26319
 550.33;23874.548;  287.338;42789.017; 0.25573
 550.91;23887.000;  287.502;42328.145; 0.25077
 551.49;23987.560;  275.114;42084.067; 0.24629
 552.07;24086.172;  281.527;41894.675; 0.24257
 552.66;24211.766;  296.715;41696.915; 0.23833
 553.24;24253.992;  301.874;41407.799; 0.23456
 553.82;24291.936;  287.046;41262.389; 0.23222
 554.40;24439.202;  287.502;41018.645; 0.22698
 554.98;24570.730;  286.839;40927.197; 0.22364
 555.57;24719.624;  295.511;40724.442; 0.21887
 556.15;24948.046;  295.794;40729.857; 0.21489
 556.73;25074.728;  289.872;40584.856; 0.21106
 557.31;25277.658;  280.087;40487.094; 0.20640
 557.89;25331.140;  267.680;40402.230; 0.20448
 558.48;25499.057;  270.725;40389.487; 0.20146
 559.06;25642.214;  269.279;40492.969; 0.20011
 559.64;25854.265;  288.172;40421.363; 0.19584
 560.22;26134.383;  308.276;40298.501; 0.18989
 560.80;26248.330;  311.749;40155.433; 0.18645
 561.39;26434.397;  300.174;40123.139; 0.18292
 561.97;26556.740;  304.256;40118.465; 0.18087
 562.55;26876.539;  305.864;40159.584; 0.17607
 563.13;27082.106;  307.652;40244.814; 0.17366
 563.71;27192.936;  295.320;40343.674; 0.17287
 564.29;27291.074;  296.315;40286.513; 0.17067
 564.88;27435.610;  280.495;40218.374; 0.16753
 565.46;27637.703;  277.260;40267.767; 0.16483
 566.04;27791.179;  269.464;40338.574; 0.16313
 566.62;28061.044;  292.162;40520.457; 0.16097
 567.20;28299.930;  292.265;40647.678; 0.15862
 567.78;28631.667;  300.170;40851.754; 0.15574
 568.36;28867.667;  300.837;41002.754; 0.15375
 568.94;29160.449;  296.460;41004.189; 0.14932
 569.53;29319.458;  295.816;41099.192; 0.14794
 570.11;29482.096;  283.902;41113.488; 0.14562
 570.69;29678.200;  278.869;41248.245; 0.14412
 571.27;29874.883;  279.854;41227.262; 0.14101
 571.85;30047.180;  279.584;41295.220; 0.13921
 572.43;30269.205;  299.078;41479.213; 0.13800
 573.01;30394.206;  288.199;41566.526; 0.13707
 573.59;30650.999;  284.931;41522.011; 0.13290
 574.17;30762.595;  270.419;41423.650; 0.13022
 574.76;31019.345;  278.826;41529.098; 0.12772
 575.34;31129.909;  274.920;41725.997; 0.12821
 575.92;31319.440;  271.771;41808.186; 0.12640
 576.50;31486.083;  265.398;41828.507; 0.12427
 577.08;31701.627;  261.206;41866.048; 0.12166
 577.66;31846.969;  250.776;41875.013; 0.11971
 578.24;31869.136;  252.747;41879.155; 0.11946
 578.82;31965.554;  257.942;41897.583; 0.11834
 579.40;32154.514;  266.978;41903.210; 0.11585
 579.98;32270.266;  273.567;41841.961; 0.11366
 580.56;32320.619;  281.852;41853.319; 0.11312
 581.14;32384.799;  291.659;41917.834; 0.11295
 581.72;32708.215;  280.280;42082.244; 0.11028
 582.30;32914.792;  273.151;42074.467; 0.10742
 582.88;33132.609;  274.650;42152.288; 0.10534
 583.46;33265.457;  282.363;42189.821; 0.10400
 584.04;33503.404;  282.956;42171.457; 0.10069
 584.62;33590.417;  265.125;42197.830; 0.09978
 585.21;33753.364;  267.265;42241.428; 0.09812
 585.79;33811.293;  273.754;42392.009; 0.09894
 586.37;34022.926;  277.118;42415.309; 0.09646
 586.95;34120.117;  275.522;42455.787; 0.09562
 587.53;34295.181;  269.979;42469.819; 0.09351
 588.11;34423.605;  278.442;42585.262; 0.09308
 588.69;34596.184;  282.733;42557.865; 0.09062
 589.27;34805.791;  283.424;42506.477; 0.08745
 589.85;34860.595;  276.026;42443.602; 0.08610
 590.43;34989.937;  271.715;42599.939; 0.08607
 591.01;35067.840;  278.076;42722.853; 0.08637
 591.59;35331.261;  288.299;42936.945; 0.08530
 592.16;35418.973;  287.924;42891.657; 0.08376
 592.74;35524.379;  291.617;42886.045; 0.08241
 593.32;35421.979;  293.193;42739.948; 0.08218
 593.90;35477.342;  297.895;42708.966; 0.08119
 594.48;35508.737;  288.777;42603.037; 0.07970
 595.06;35736.821;  285.245;42684.475; 0.07772
 595.64;35989.245;  272.769;42709.242; 0.07487
 596.22;36153.146;  276.890;42757.472; 0.07338
 596.80;36117.306;  268.138;42505.619; 0.07122
 597.38;35996.589;  264.245;42457.558; 0.07218
 597.96;35890.936;  262.869;42299.911; 0.07184
 598.54;35847.429;  268.057;42320.734; 0.07260
 599.12;35792.447;  272.769;42174.074; 0.07176
 599.70;35797.321;  272.156;42133.628; 0.07128
 600.28;35909.229;  269.178;41999.881; 0.06852
 600.86;35912.934;  273.568;41898.236; 0.06742
 601.44;35807.016;  279.130;41816.989; 0.06787
 602.02;35716.677;  273.135;41601.984; 0.06672
 602.59;35697.205;  269.019;41487.164; 0.06574
 603.17;35687.679;  254.435;41427.991; 0.06521
 603.75;35676.031;  264.600;41407.036; 0.06515
 604.33;35617.025;  268.544;41269.041; 0.06442
 604.91;35667.959;  272.574;41056.648; 0.06154
 605.49;35547.723;  271.546;40985.067; 0.06226
 606.07;35422.568;  254.900;40828.877; 0.06210
 606.65;35380.395;  260.422;40696.701; 0.06122
 607.23;35310.806;  264.441;40448.820; 0.05941
 607.80;35317.685;  277.156;40221.379; 0.05688
 608.38;35129.810;  277.256;40025.464; 0.05708
 608.96;35072.361;  285.786;39921.000; 0.05667
 609.54;34859.054;  288.246;39743.725; 0.05740
 610.12;34672.037;  283.928;39528.375; 0.05737
 610.70;34322.641;  273.259;39095.265; 0.05697
 611.28;34212.445;  259.195;38813.390; 0.05519
 611.85;34019.933;  265.841;38433.913; 0.05337
 612.43;33932.293;  260.695;38304.961; 0.05303
 613.01;33695.835;  263.202;38019.161; 0.05281
 613.59;33381.463;  249.299;37795.112; 0.05431
 614.17;33189.752;  240.914;37668.085; 0.05535
 614.75;32977.869;  222.778;37521.205; 0.05641
 615.32;32884.454;  209.277;37291.775; 0.05495
 615.90;32768.236;  219.080;36866.572; 0.05150
 616.48;32688.643;  232.952;36658.988; 0.05012
 617.06;32501.151;  255.157;36308.488; 0.04847
 617.64;32180.470;  246.140;36072.812; 0.04995
 618.22;31890.170;  241.049;35666.522; 0.04895
 618.79;31777.260;  228.178;35515.632; 0.04863
 619.37;31610.641;  227.104;35180.352; 0.04679
 619.95;31370.598;  231.387;34894.600; 0.04656
 620.53;31013.502;  218.869;34491.494; 0.04647
 621.11;30742.274;  206.529;34156.975; 0.04604
 621.68;30561.995;  201.116;33920.700; 0.04557
 622.26;30453.430;  202.843;33803.106; 0.04561
 622.84;30289.703;  212.594;33643.042; 0.04591
 623.42;30081.395;  214.208;33340.072; 0.04497
 623.99;29852.481;  232.130;33128.823; 0.04556
 624.57;29722.526;  239.695;32874.211; 0.04411
 625.15;29528.588;  249.244;32723.283; 0.04497
 625.73;29445.750;  235.066;32483.448; 0.04297
 626.30;29214.435;  228.444;32290.122; 0.04380
 626.88;29021.589;  228.031;32032.596; 0.04319
 627.46;28764.756;  230.061;31766.787; 0.04344
 628.04;28578.161;  242.419;31549.234; 0.04330
 628.61;28460.366;  241.899;31249.103; 0.04093
 629.19;28183.378;  244.829;31015.066; 0.04193
 629.77;27966.076;  231.831;30736.758; 0.04135
 630.35;27714.151;  234.217;30562.869; 0.04284
 630.92;27547.187;  232.092;30375.921; 0.04280
 631.50;27465.388;  220.757;30199.145; 0.04153
 632.08;27390.248;  206.521;29949.680; 0.03908
 632.66;27278.041;  196.801;29744.460; 0.03785
 633.23;27050.667;  216.776;29426.430; 0.03684
 633.81;26688.932;  225.566;29138.020; 0.03844
 634.39;26400.028;  220.298;28844.754; 0.03877
 634.96;26313.738;  221.956;28624.791; 0.03686
 635.54;26182.807;  216.680;28606.896; 0.03876
 636.12;26058.844;  214.735;28334.976; 0.03666
 636.69;25805.808;  204.526;28222.591; 0.03918
 637.27;25644.744;  199.403;27913.834; 0.03710
 637.85;25571.981;  217.219;27696.062; 0.03494
 638.42;25258.240;  206.286;27392.989; 0.03551
 639.00;25054.017;  223.367;27259.457; 0.03696
 639.58;24718.486;  209.789;26981.612; 0.03836
 640.15;24649.375;  222.891;26790.445; 0.03649
 640.73;24524.158;  204.119;26492.226; 0.03380
 641.31;24516.607;  216.013;26471.006; 0.03360
 641.88;24330.723;  210.908;26285.787; 0.03385
 642.46;24147.172;  226.803;26132.901; 0.03463
 643.04;23896.955;  214.697;25934.349; 0.03584
 643.61;23695.071;  223.925;25817.463; 0.03760
 644.19;23565.187;  209.153;25659.577; 0.03730
 644.77;23346.970;  224.048;25468.358; 0.03812
 645.34;23303.419;  211.943;25293.805; 0.03591
 645.92;23226.535;  214.504;25070.586; 0.03348
 646.49;23210.318;  218.399;24938.033; 0.03147
 647.07;22985.433;  220.293;24745.814; 0.03235
 647.65;22821.549;  224.188;24564.928; 0.03228
 648.22;22663.999;  218.082;24391.042; 0.03219
 648.80;22678.781;  227.310;24368.156; 0.03151
 649.37;22570.231;  227.872;24339.937; 0.03311
 649.95;22465.680;  227.433;24242.051; 0.03338
 650.53;22361.796;  209.328;24121.165; 0.03319
 651.10;22194.912;  214.222;24054.279; 0.03527
 651.68;22145.694;  211.450;24020.060; 0.03561
 652.25;22048.810;  221.012;23899.174; 0.03534
 652.83;22093.260;  211.573;23700.955; 0.03079
 653.41;21977.376;  208.468;23524.069; 0.02981
 653.98;21956.825;  212.362;23340.850; 0.02680
 654.56;21827.608;  211.590;23307.630; 0.02876
 655.13;21768.057;  208.818;23285.744; 0.02954
 655.71;21576.840;  207.379;23284.525; 0.03339
 656.28;21488.955;  194.941;23185.639; 0.03329
 656.86;21408.071;  188.169;22962.753; 0.03071
 657.43;21466.187;  190.397;22872.868; 0.02780
 658.01;21512.637;  212.958;22793.315; 0.02536
 658.58;21593.086;  207.519;22876.096; 0.02530
 659.16;21474.535;  211.747;22798.876; 0.02624
 659.74;21371.318;  196.309;22777.324; 0.02792
 660.31;21263.767;  204.203;22714.438; 0.02893
 660.89;21211.216;  198.098;22687.885; 0.02949
 661.46;21172.999;  206.659;22545.999; 0.02755
 662.04;21067.115;  208.554;22516.780; 0.02918
 662.61;21076.898;  207.448;22500.894; 0.02867
 663.19;21019.680;  206.676;22626.342; 0.03229
 663.76;21132.130;  209.571;22600.456; 0.02946
 664.34;21194.246;  211.132;22526.237; 0.02673
 664.91;21309.362;  214.027;22413.684; 0.02216
 665.49;21330.811;  216.922;22441.798; 0.02227
 666.06;21318.927;  213.150;22513.246; 0.02391
 666.64;21287.376;  212.044;22555.693; 0.02538
 667.21;21289.159;  216.606;22500.140; 0.02427
 667.79;21270.941;  204.167;22400.588; 0.02268
 668.36;21249.724;  201.395;22402.702; 0.02316
 668.93;21204.507;  202.290;22421.149; 0.02446
 669.51;21149.289;  198.184;22426.263; 0.02570
 670.08;21122.738;  192.412;22387.044; 0.02547
 670.66;21171.854;  189.307;22273.825; 0.02223
 671.23;21353.970;  213.201;22361.606; 0.02022
 671.81;21444.086;  219.763;22403.720; 0.01921
 672.38;21402.536;  224.324;22501.167; 0.02196
 672.96;21392.652;  213.552;22510.281; 0.02233
 673.53;21401.434;  213.113;22482.395; 0.02161
 674.10;21499.217;  213.008;22524.843; 0.02044
 674.68;21386.999;  228.236;22505.290; 0.02237
 675.25;21355.449;  221.131;22417.404; 0.02129
 675.83;21207.898;  215.692;22370.185; 0.02340
 676.40;21167.681;  203.253;22300.299; 0.02285
 676.98;21112.797;  209.148;22323.413; 0.02445
 677.55;21117.246;  210.043;22281.527; 0.02354
 678.12;21125.029;  223.937;22260.975; 0.02298
 678.70;21124.478;  221.832;22236.089; 0.02250
 679.27;21129.260;  229.060;22163.870; 0.02098
 679.85;21085.043;  216.621;22124.984; 0.02112
 680.42;20994.826;  216.516;22133.431; 0.02317
 680.99;20944.608;  192.744;22099.212; 0.02352
 681.57;20934.391;  198.305;22028.659; 0.02233
 682.14;20993.507;  205.866;21848.773; 0.01751
 682.71;20949.623;  210.761;21795.554; 0.01736
 683.29;20845.406;  200.656;21706.668; 0.01775
 683.86;20638.855;  185.884;21546.116; 0.01885
 684.43;20532.971;  198.112;21362.230; 0.01736
 685.01;20411.087;  197.006;21197.011; 0.01657
 685.58;20411.203;  206.234;21272.458; 0.01813
 686.16;20412.652;  206.462;21269.239; 0.01803
 686.73;20442.101;  215.023;21397.686; 0.02005
 687.30;20399.217;  207.585;21388.467; 0.02077
 687.88;20324.333;  217.479;21321.914; 0.02103
 688.45;20245.116;  210.707;21118.362; 0.01853
 689.02;20205.898;  213.602;21022.142; 0.01738
 689.60;20134.014;  190.497;20889.257; 0.01614
 690.17;20156.130;  199.391;20926.704; 0.01645
 690.74;20035.580;  189.619;20805.485; 0.01653
 691.31;19957.362;  204.181;20824.932; 0.01867
 691.89;19784.478;  191.742;20754.713; 0.02099
 692.46;19763.927;  212.637;20700.494; 0.02032
 693.03;19703.710;  229.198;20611.941; 0.01980
 693.61;19676.159;  234.759;20426.722; 0.01645
 694.18;19701.609;  237.320;20424.503; 0.01584
 694.75;19706.391;  206.882;20414.950; 0.01550
 695.32;19661.507;  208.110;20458.064; 0.01743
 695.90;19493.623;  203.004;20312.512; 0.01806
 696.47;19351.406;  203.899;20210.626; 0.01906
 697.04;19321.522;  214.460;20060.073; 0.01647
 697.62;19322.638;  213.355;20039.187; 0.01599
 698.19;19325.420;  229.250;19951.301; 0.01401
 698.76;19251.536;  211.144;19960.082; 0.01587
 699.33;19164.319;  210.706;19883.196; 0.01617
 699.91;19076.102;  196.600;19795.977; 0.01625
 700.48;18982.551;  206.162;19674.091; 0.01571
 701.05;18862.000;  208.056;19645.538; 0.01787
 701.62;18792.449;  232.951;19536.652; 0.01707
 702.20;18660.899;  235.179;19463.767; 0.01852
 702.77;18575.681;  232.073;19314.881; 0.01716
 703.34;18471.797;  217.301;19303.995; 0.01936
 703.91;18538.247;  214.196;19161.775; 0.01453
 704.48;18448.029;  220.091;19054.223; 0.01421
 705.06;18436.145;  212.652;18964.004; 0.01240
 705.63;18292.261;  221.213;18940.118; 0.01530
 706.20;18351.710;  214.441;18934.565; 0.01374
 706.77;18289.826;  221.336;18864.679; 0.01360
 707.34;18298.942;  215.564;18821.793; 0.01238
 707.92;18211.725;  205.792;18710.907; 0.01188
 708.49;18087.841;  193.353;18575.022; 0.01167
 709.06;17858.957;  193.248;18466.136; 0.01468
 709.63;17833.406;  194.476;18431.916; 0.01449
 710.20;17796.522;  191.037;18446.697; 0.01575
 710.77;17896.971;  187.932;18338.145; 0.01069
 711.35;17769.087;  185.826;18305.592; 0.01305
 711.92;17822.870;  205.721;18271.706; 0.01093
 712.49;17857.319;  207.616;18372.487; 0.01249
 713.06;17917.769;  215.844;18405.934; 0.01181
 713.63;17908.551;  209.405;18498.382; 0.01424
 714.20;17806.667;  212.300;18556.829; 0.01813
 714.78;17818.783;  209.528;18487.277; 0.01618
 715.35;17819.566;  205.756;18407.724; 0.01427
 715.92;17898.015;  207.317;18351.838; 0.01100
 716.49;17924.798;  222.545;18343.285; 0.01015
 717.06;17977.247;  226.106;18273.400; 0.00719
 717.63;17912.030;  217.334;18198.847; 0.00698
 718.20;17839.146;  210.895;18175.294; 0.00820
 718.77;17678.262;  224.790;18170.075; 0.01207
 719.35;17547.044;  226.351;18153.189; 0.01494
 719.92;17534.160;  211.913;18038.303; 0.01246
 720.49;17500.943;  197.474;17879.084; 0.00939
 721.06;17480.392;  177.369;17774.532; 0.00732
 721.63;17396.508;  190.930;17799.979; 0.01007
 722.20;17382.957;  195.825;17861.426; 0.01193
 722.77;17428.740;  203.386;17825.540; 0.00989
 723.34;17396.189;  196.947;17821.321; 0.01060
 723.91;17405.305;  205.509;17813.102; 0.01018
 724.48;17316.754;  222.070;17777.883; 0.01156
 725.05;17251.537;  212.964;17617.997; 0.00924
 725.62;17121.320;  195.192;17490.778; 0.00938
 726.20;17063.102;  186.754;17461.892; 0.01014
 726.77;17016.218;  192.982;17446.339; 0.01096
 727.34;16998.668;  199.210;17412.787; 0.01058
 727.91;17024.784;  209.104;17361.567; 0.00861
 728.48;17041.900;  214.999;17354.015; 0.00798
 729.05;17031.349;  215.560;17353.795; 0.00825
 729.62;17032.465;  192.788;17320.910; 0.00738
 730.19;16990.914;  185.683;17297.024; 0.00784
 730.76;16945.363;  188.578;17324.138; 0.00971
 731.33;16932.813;  211.472;17306.252; 0.00959
 731.90;16964.262;  215.034;17274.033; 0.00796
 732.47;17003.711;  206.261;17242.147; 0.00612
 733.04;16893.494;  191.156;17245.594; 0.00906
 733.61;16753.610;  168.051;17256.042; 0.01296
 734.18;16684.059;  173.945;17191.156; 0.01314
 734.75;16597.175;  184.507;17077.270; 0.01252
 735.32;16598.291;  211.401;16955.384; 0.00936
 735.89;16457.740;  203.963;16851.831; 0.01040
 736.46;16429.190;  212.191;16734.945; 0.00811
 737.03;16348.306;  203.085;16674.393; 0.00868
 737.60;16379.755;  203.647;16580.840; 0.00537
 738.17;16342.537;  173.208;16558.621; 0.00577
 738.74;16296.320;  184.103;16523.735; 0.00609
 739.31;16199.436;  185.331;16430.849; 0.00623
 739.88;16090.219;  195.225;16300.630; 0.00571
 740.45;15990.001;  176.120;16234.411; 0.00666
 741.02;15968.117;  174.348;16293.858; 0.00887
 741.59;16031.900;  171.909;16337.305; 0.00828
 742.15;16109.683;  177.804;16325.753; 0.00585
 742.72;16106.465;  185.365;16376.867; 0.00731
 743.29;16031.581;  187.593;16351.648; 0.00869
 743.86;15959.364;  195.154;16298.095; 0.00923
 744.43;15995.813;  197.049;16220.543; 0.00613
 745.00;16067.596;  201.277;16240.323; 0.00470
 745.57;16136.045;  209.172;16261.771; 0.00341
 746.14;16102.161;  201.733;16198.552; 0.00262
 746.71;16043.277;  208.294;16179.666; 0.00372
 747.28;16007.393;  196.522;16170.446; 0.00446
 747.85;15975.175;  172.417;16124.227; 0.00408
 748.42;15980.958;  173.645;16103.675; 0.00336
 748.98;15902.074;  177.206;16075.455; 0.00476
 749.55;15884.857;  197.767;16011.569; 0.00349
 750.12;15890.306;  197.662;16015.683; 0.00346
 750.69;15900.422;  204.890;15955.131; 0.00151
 751.26;15814.538;  216.118;15910.245; 0.00266
 751.83;15644.987;  206.013;15821.026; 0.00492
 752.40;15629.103;  204.907;15769.807; 0.00394
 752.97;15626.552;  192.802;15780.587; 0.00431
 753.53;15677.668;  195.697;15773.035; 0.00267
 754.10;15624.784;  187.925;15706.815; 0.00230
 754.67;15620.900;  185.486;15666.263; 0.00127
 755.24;15573.016;  192.714;15616.044; 0.00121
 755.81;15521.799;  200.608;15583.491; 0.00175
 756.38;15460.581;  223.503;15510.272; 0.00141
 756.94;15381.031;  215.064;15482.386; 0.00289
 757.51;15248.480;  204.292;15502.833; 0.00728
 758.08;15191.263;  196.520;15545.281; 0.01013
 758.65;15136.379;  213.748;15443.728; 0.00885
 759.22;15101.161;  220.643;15351.176; 0.00724
 759.79;14959.611;  205.538;15180.623; 0.00646
 760.35;14836.060;  191.432;15130.404; 0.00864
 760.92;14666.842;  201.994;14987.518; 0.00952
 761.49;14520.625;  208.555;14849.965; 0.00988
 762.06;14478.408;  211.783;14641.079; 0.00492
 762.63;14478.857;  201.011;14500.527; 0.00066
 763.19;14384.640;  203.239;14469.641; 0.00260
 763.76;14249.422;  215.133;14423.422; 0.00535
 764.33;14117.205;  219.695;14294.202; 0.00550
 764.90;14067.321;  218.589;14107.650; 0.00126
 765.46;13921.437;  197.817;13914.097;-0.00023
 766.03;13725.553;  196.045;13749.878; 0.00078
 766.60;13488.669;  197.940;13624.992; 0.00443
 767.17;13327.451;  205.501;13465.773; 0.00455
 767.73;13162.567;  207.063;13413.220; 0.00832
 768.30;13084.350;  206.624;13205.001; 0.00405
 768.87;12899.133;  215.185;13045.782; 0.00499
 769.44;12824.915;  213.413;12836.229; 0.00039
 770.00;12599.698;  215.975;12686.677; 0.00304
 770.57;12411.814;  216.536;12525.791; 0.00404
 771.14;12187.930;  213.430;12350.238; 0.00585
 771.71;11997.379;  198.325;12122.686; 0.00459
 772.27;11895.162;  206.220;11935.800; 0.00151
 772.84;11708.611;  209.448;11715.914; 0.00028
 773.41;11566.727;  213.676;11595.695; 0.00111
 773.97;11392.176;  205.904;11440.809; 0.00188
 774.54;11228.959;  213.798;11314.923; 0.00338
 775.11;11138.075;  232.360;11227.370; 0.00354
 775.67;10916.191;  228.588;11074.818; 0.00640
 776.24;10777.307;  222.482;10902.265; 0.00511
 776.81;10604.089;  220.377;10665.712; 0.00257
 777.38;10533.205;  208.272;10484.160;-0.00207
 777.94;10455.988;  214.166;10350.941;-0.00448
 778.51;10293.770;  199.728;10214.721;-0.00341
 779.08;10182.886;  210.622;10137.835;-0.00197
 779.64;10058.336;  201.517;10058.283; 0.00000
 780.21; 9979.452;  202.745; 9970.064;-0.00042
 780.78; 9858.901;  211.639; 9870.178; 0.00051
 781.34; 9771.017;  212.534; 9787.625; 0.00075
 781.91; 9663.800;  225.762; 9703.406; 0.00182
 782.47; 9553.582;  227.990; 9633.520; 0.00371
 783.04; 9473.698;  238.551; 9482.634; 0.00042
 783.61; 9438.814;  245.779; 9385.415;-0.00253
 784.17; 9392.263;  246.674; 9320.196;-0.00344
 784.74; 9282.046;  236.569; 9240.310;-0.00201
 785.31; 9214.162;  244.797; 9256.090; 0.00203
 785.87; 9134.945;  248.691; 9137.538; 0.00013
 786.44; 9090.727;  252.252; 9126.319; 0.00175
 787.00; 9032.843;  239.480; 9065.766; 0.00162
 787.57; 9043.959;  222.375; 9005.880;-0.00188
 788.14; 9064.742;  242.936; 8941.661;-0.00610
 788.70; 9053.858;  252.831; 8828.442;-0.01127
 789.27; 9007.640;  261.392; 8880.222;-0.00637
 789.83; 8922.090;  247.620; 8836.003;-0.00433
 790.40; 8871.206;  230.182; 8838.117;-0.00167
 790.96; 8828.322;  235.076; 8799.898;-0.00144
 791.53; 8830.438;  229.304; 8766.679;-0.00323
 792.10; 8804.553;  224.866; 8777.126;-0.00139
 792.66; 8771.336;  219.094; 8720.574;-0.00259
 793.23; 8675.119;  214.988; 8733.688; 0.00300
 793.79; 8655.901;  216.216; 8675.468; 0.00101
 794.36; 8649.017;  210.777; 8660.249; 0.00058
 794.92; 8664.133;  219.339; 8606.363;-0.00298
 795.49; 8589.583;  232.233; 8532.811;-0.00296
 796.05; 8522.699;  243.461; 8505.258;-0.00092
 796.62; 8485.814;  248.023; 8527.372; 0.00219
 797.19; 8466.264;  237.917; 8507.820; 0.00219
 797.75; 8495.380;  226.145; 8453.600;-0.00220
 798.32; 8458.829;  218.373; 8393.714;-0.00345
 798.88; 8490.945;  222.601; 8383.829;-0.00566
 799.45; 8491.728;  224.829; 8436.276;-0.00292
 800.01; 8636.844;  220.391; 8517.723;-0.00619
 800.58; 8769.293;  215.952; 8677.504;-0.00469
 801.14; 8979.075;  222.513; 8916.952;-0.00309
 801.71; 9157.191;  218.074; 9117.399;-0.00194
 802.27; 9393.641;  206.969; 9310.180;-0.00396
 802.84; 9635.757;  188.864; 9480.294;-0.00721
 803.40; 9953.206;  179.758; 9723.075;-0.01035
 803.96;10254.322;  198.986;10006.189;-0.01085
 804.53;10602.771;  210.548;10273.303;-0.01399
 805.09;10908.554;  208.442;10576.417;-0.01369
 805.66;11268.336;  200.670;10926.198;-0.01364
 806.22;11621.786;  172.898;11264.978;-0.01375
 806.79;11884.902;  185.793;11622.426;-0.00985
 807.35;12199.684;  182.354;11886.873;-0.01145
 807.92;12489.800;  214.582;12161.654;-0.01177
 808.48;12809.250;  221.810;12436.768;-0.01305
 809.05;13090.032;  217.705;12708.882;-0.01305
 809.61;13314.482;  213.933;13054.330;-0.00871
 810.17;13689.931;  218.827;13355.110;-0.01093
 810.74;14023.047;  231.055;13671.891;-0.01120
 811.30;14414.829;  226.617;13899.672;-0.01606
 811.87;14684.612;  214.511;14212.453;-0.01441
 812.43;14937.061;  214.406;14571.233;-0.01093
 812.99;15284.844;  216.967;14881.014;-0.01180
 813.56;15692.627;  221.862;15191.462;-0.01430
 814.12;16064.409;  221.090;15523.909;-0.01507
 814.69;16325.192;  216.318;15866.356;-0.01255
 815.25;16540.308;  210.213;16143.804;-0.01068
 815.81;16835.757;  200.774;16302.251;-0.01416
 816.38;17130.540;  196.335;16642.699;-0.01269
 816.94;17464.322;  193.897;16882.479;-0.01488
 817.51;17720.105;  192.791;17283.594;-0.01095
 818.07;17962.221;  201.019;17504.374;-0.01134
 818.63;18222.670;  202.247;17804.155;-0.01021
 819.20;18519.453;  201.808;18033.936;-0.01167
 819.76;18806.569;  209.370;18216.050;-0.01401
 820.32;19047.351;  216.598;18394.831;-0.01532
 820.89;19282.467;  218.159;18583.278;-0.01623
 821.45;19449.917;  193.387;18775.726;-0.01548
 822.01;19512.366;  176.615;18965.173;-0.01247
 822.58;19525.815;  180.843;19065.620;-0.01046
 823.14;19597.598;  194.404;19233.068;-0.00824
 823.70;19745.714;  202.299;19352.182;-0.00883
 824.27;19864.830;  193.194;19462.963;-0.00896
 824.83;19942.279;  215.421;19467.743;-0.01057
 825.39;19888.395;  215.649;19374.524;-0.01149
 825.95;19771.178;  221.211;19316.972;-0.01021
 826.52;19495.294;  191.105;19274.752;-0.00499
 827.08;19363.076;  189.000;19152.200;-0.00480
 827.64;19236.525;  175.895;18949.314;-0.00659
 828.21;19127.641;  175.123;18660.095;-0.01085
 828.77;18788.424;  181.351;18397.542;-0.00922
 829.33;18399.873;  183.579;18029.323;-0.00893
 829.89;17974.989;  181.807;17638.104;-0.00830
 830.46;17630.439;  185.701;17297.218;-0.00838
 831.02;17157.888;  190.596;16895.332;-0.00677
 831.58;16823.004;  201.157;16540.779;-0.00744
 832.15;16416.786;  185.052;16128.893;-0.00777
 832.71;16047.236;  188.280;15811.341;-0.00651
 833.27;15578.352;  178.841;15353.455;-0.00639
 833.83;15098.134;  169.736;14940.569;-0.00461
 834.39;14553.250;  164.297;14394.016;-0.00483
 834.96;14060.366;  162.192;13925.464;-0.00424
 835.52;13592.816;  187.086;13474.578;-0.00385
 836.08;13302.598;  188.981;13047.025;-0.00855
 836.64;12877.714;  194.876;12619.473;-0.00893
 837.21;12402.163;  198.770;12148.920;-0.00911
 837.77;11928.279;  198.332;11759.367;-0.00630
 838.33;11512.062;  206.893;11447.148;-0.00250
 838.89;11157.511;  203.121;11001.596;-0.00623
 839.45;10702.627;  205.349;10589.710;-0.00470
 840.02;10317.410;  209.910;10134.490;-0.00793
 840.58; 9934.526;  201.805; 9836.938;-0.00438
 841.14; 9568.308;  224.699; 9457.052;-0.00520
 841.70; 9154.424;  220.594; 9049.833;-0.00511
 842.26; 8723.207;  218.155; 8613.280;-0.00565
 842.82; 8372.656;  209.050; 8233.061;-0.00749
 843.39; 7951.439;  200.278; 7802.175;-0.00844
 843.95; 7572.888;  213.839; 7446.956;-0.00750
 844.51; 7175.338;  213.734; 7076.737;-0.00620
 845.07; 6880.454;  223.295; 6751.184;-0.00852
 845.63; 6609.903;  228.523; 6447.965;-0.01116
 846.19; 6408.685;  213.418; 6205.745;-0.01446
 846.75; 6199.468;  212.646; 6042.860;-0.01151
 847.32; 5989.584;  191.874; 5828.307;-0.01225
 847.88; 5732.367;  198.435; 5647.088;-0.00674
 848.44; 5513.149;  182.996; 5418.202;-0.00781
 849.00; 5344.599;  188.224; 5206.649;-0.01178
 849.56; 5178.715;  183.119; 5035.763;-0.01261
 850.12; 5083.830;  176.680; 4913.211;-0.01537
 850.68; 5023.946;  181.908; 4877.325;-0.01335
 851.24; 4980.396;  184.136; 4806.439;-0.01604
 851.80; 4950.178;  199.364; 4790.220;-0.01487
 852.37; 4879.294;  196.592; 4731.334;-0.01394
 852.93; 4841.744;  204.820; 4729.448;-0.01065
 853.49; 4793.860;  212.715; 4650.895;-0.01377
 854.05; 4721.309;  223.943; 4597.676;-0.01211
 854.61; 4685.091;  224.171; 4520.790;-0.01630
 855.17; 4614.874;  234.066; 4501.904;-0.01135
 855.73; 4659.657;  222.627; 4484.352;-0.01751
 856.29; 4663.106;  213.855; 4475.132;-0.01875
 856.85; 4717.555;  192.749; 4517.913;-0.01960
 857.41; 4758.671;  203.644; 4600.027;-0.01540
 857.97; 4836.121;  205.205; 4760.141;-0.00718
 858.53; 4983.237;  207.433; 4902.255;-0.00743
 859.09; 5189.019;  192.328; 5028.370;-0.01419
 859.65; 5471.135;  184.889; 5166.484;-0.02578
 860.21; 5747.251;  182.451; 5403.598;-0.02768
 860.77; 5997.367;  179.679; 5685.045;-0.02396
 861.33; 6272.150;  189.573; 6014.826;-0.01877
 861.89; 6602.266;  205.135; 6331.273;-0.01880
 862.45; 6955.382;  215.363; 6656.387;-0.01971
 863.01; 7340.164;  205.924; 6960.168;-0.02377
 863.57; 7651.280;  191.152; 7240.949;-0.02457
 864.13; 7976.729;  180.713; 7598.730;-0.02158
 864.69; 8339.845;  188.608; 7928.510;-0.02249
 865.25; 8666.628;  208.502; 8274.958;-0.02059
 865.81; 8974.411;  215.730; 8598.739;-0.01904
 866.37; 9229.527;  213.625; 8883.853;-0.01698
 866.93; 9591.643;  200.853; 9198.967;-0.01855
 867.49; 9943.425;  216.081; 9536.081;-0.01858
 868.05;10303.541;  210.642; 9849.195;-0.02000
 868.61;10603.990;  206.870;10116.309;-0.02086
 869.17;10912.106;  185.765;10306.090;-0.02526
 869.73;11257.889;  202.660;10652.537;-0.02446
 870.29;11598.672;  209.554;10985.985;-0.02402
 870.85;11977.454;  212.115;11316.099;-0.02513
 871.41;12286.904;  192.010;11700.213;-0.02159
 871.97;12639.686;  179.571;12032.994;-0.02168
 872.53;13065.469;  184.799;12414.108;-0.02254
 873.09;13451.918;  192.361;12748.222;-0.02368
 873.65;13858.034;  202.922;13125.336;-0.02395
 874.20;14126.817;  204.150;13530.783;-0.01900
 874.76;14577.817;  206.483;13844.450;-0.02275
 875.32;15001.150;  199.150;14344.450;-0.01971
 875.88;15436.817;  204.817;14722.117;-0.02087
 876.44;15831.817;  218.150;15059.450;-0.02203
 877.00;16170.150;  218.150;15358.117;-0.02269
 877.56;16437.817;  215.483;15696.450;-0.02032
 878.12;16676.817;  204.483;16104.450;-0.01536
 878.68;16917.483;  211.817;16344.450;-0.01516
 879.23;17234.150;  207.150;16637.783;-0.01548
 879.79;17538.817;  220.483;16875.783;-0.01695
 880.35;17828.483;  205.150;17127.117;-0.01764
 880.91;18160.817;  192.150;17367.783;-0.01960
 881.47;18389.150;  175.817;17611.783;-0.01894
 882.03;18653.483;  191.483;17929.783;-0.01737
 882.59;18919.817;  204.150;18199.450;-0.01705
 883.14;19110.483;  217.150;18423.117;-0.01609
 883.70;19255.483;  220.150;18492.117;-0.01778
 884.26;19315.483;  217.483;18606.117;-0.01644
 884.82;19467.150;  200.150;18627.783;-0.01934
 885.38;19494.150;  184.483;18693.783;-0.01838
 885.94;19440.817;  186.817;18692.783;-0.01721
 886.49;19383.150;  200.150;18759.783;-0.01435
 887.05;19381.817;  192.817;18819.450;-0.01292
 887.61;19333.817;  182.817;18766.450;-0.01306
 888.17;19199.483;  175.817;18655.450;-0.01260
 888.73;19052.150;  189.483;18492.450;-0.01308
 889.28;18915.150;  190.150;18251.117;-0.01568
 889.84;18731.817;  191.817;18020.450;-0.01699
 890.40;18567.150;  194.817;17792.450;-0.01871
 890.96;18394.817;  199.483;17628.450;-0.01869
 891.51;18185.817;  189.483;17470.117;-0.01762
 892.07;17964.817;  183.817;17244.117;-0.01797
 892.63;17873.150;  190.483;17036.783;-0.02104
 893.19;17682.150;  200.817;16880.117;-0.02040
 893.74;17507.817;  215.150;16772.783;-0.01886
 894.30;17251.150;  206.150;16671.450;-0.01503
 894.86;17092.483;  185.150;16510.450;-0.01521
 895.42;16970.150;  176.483;16397.450;-0.01507
 895.97;16884.817;  175.150;16362.450;-0.01379
 896.53;16899.150;  203.817;16299.450;-0.01589
 897.09;16817.483;  212.817;16258.117;-0.01488
 897.65;16720.150;  225.483;16079.783;-0.01720
 898.20;16646.817;  228.483;15994.117;-0.01762
 898.76;16651.483;  215.150;15888.117;-0.02065
 899.32;16596.483;  215.483;15824.450;-0.02097
 899.87;16544.483;  206.483;15765.117;-0.02123
 900.43;16375.150;  206.150;15631.783;-0.02044
 900.99;16237.150;  194.483;15508.450;-0.02019
 901.54;15948.150;  181.150;15319.450;-0.01767
 902.10;15808.483;  193.150;15133.117;-0.01920
 902.66;15587.150;  208.483;14918.117;-0.01932
 903.21;15488.483;  221.817;14754.117;-0.02141
 903.77;15298.150;  229.483;14588.450;-0.02095
 904.33;15194.483;  209.483;14443.783;-0.02232
 904.88;15050.483;  198.150;14329.783;-0.02160
 905.44;14959.817;  177.150;14293.450;-0.02003
 906.00;14895.150;  191.150;14324.117;-0.01720
 906.55;14834.150;  207.483;14294.117;-0.01634
 907.11;14719.817;  214.150;14239.117;-0.01464
 907.67;14547.150;  205.817;14016.117;-0.01639
 908.22;14361.150;  196.150;13855.783;-0.01578
 908.78;14278.817;  187.817;13715.783;-0.01771
 909.33;14169.483;  195.483;13616.783;-0.01753
 909.89;14148.150;  192.150;13488.783;-0.02102
 910.45;13973.150;  201.150;13406.783;-0.01824
 911.00;13862.150;  191.483;13362.117;-0.01618
 911.56;13722.483;  203.817;13272.117;-0.01471
 912.12;13578.483;  208.483;13101.117;-0.01579
 912.67;13444.483;  221.483;12951.117;-0.01651
 913.23;13256.817;  194.150;12807.450;-0.01520
 913.78;13199.817;  178.483;12651.783;-0.01867
 914.34;13123.483;  201.483;12642.117;-0.01649
 914.89;13032.150;  216.483;12543.117;-0.01690
 915.45;12971.817;  227.150;12558.117;-0.01433
 916.01;12923.150;  195.483;12386.117;-0.01872
 916.56;12832.817;  201.483;12282.450;-0.01935
 917.12;12688.817;  196.817;12063.117;-0.02232
 917.67;12572.483;  195.483;11981.117;-0.02126
 918.23;12404.817;  182.817;11944.450;-0.01667
 918.78;12275.150;  186.483;11927.117;-0.01269
 919.34;12118.817;  188.817;11843.783;-0.01013
 919.89;12030.817;  199.150;11694.117;-0.01254
 920.45;11871.817;  185.817;11531.783;-0.01282
 921.00;11715.150;  168.817;11330.783;-0.01470
 921.56;11621.150;  176.150;11296.783;-0.01249
 922.11;11551.150;  175.150;11154.450;-0.01541
 922.67;11371.150;  202.483;11048.450;-0.01273
 923.22;11211.483;  191.150;10815.450;-0.01589
 923.78;11019.817;  202.817;10632.117;-0.01585
 924.33;10911.483;  195.817;10497.117;-0.01713
 924.89;10770.483;  196.483;10361.117;-0.01715
 925.44;10581.817;  204.817;10248.117;-0.01420
 926.00;10448.817;  201.150;10018.783;-0.01862
 926.55;10325.150;  205.150; 9867.117;-0.02011
 927.11;10226.150;  188.150; 9720.450;-0.02245
 927.66;10167.483;  177.817; 9717.117;-0.02003
 928.22;10136.483;  174.483; 9670.783;-0.02079
 928.77;10169.483;  190.150; 9636.117;-0.02386
 929.33;10075.817;  204.150; 9587.783;-0.02202
 929.88;10016.817;  205.150; 9516.450;-0.02273
 930.43; 9949.483;  182.483; 9493.450;-0.02077
 930.99; 9986.483;  174.817; 9470.117;-0.02348
 931.54; 9932.483;  167.150; 9456.783;-0.02169
 932.10; 9906.150;  190.150; 9473.117;-0.01980
 932.65; 9876.150;  197.150; 9480.117;-0.01814
 933.21; 9895.817;  198.483; 9496.450;-0.01826
 933.76; 9856.483;  187.483; 9472.117;-0.01762
 934.31; 9840.817;  183.150; 9454.117;-0.01775
 934.87; 9817.483;  190.150; 9433.783;-0.01766
 935.42; 9837.150;  199.483; 9431.450;-0.01868
 935.98; 9820.817;  195.483; 9388.450;-0.01996
 936.53; 9810.483;  193.817; 9335.450;-0.02200
 937.08; 9801.817;  191.150; 9347.783;-0.02102
 937.64; 9746.150;  197.817; 9356.783;-0.01808
 938.19; 9688.817;  196.483; 9425.117;-0.01224
 938.74; 9632.150;  199.817; 9340.117;-0.01366
 939.30; 9589.150;  187.150; 9339.783;-0.01167
 939.85; 9611.483;  186.483; 9209.783;-0.01892
 940.40; 9608.817;  173.817; 9251.783;-0.01675
 940.96; 9673.483;  187.150; 9238.450;-0.02039
 941.51; 9621.817;  189.483; 9244.783;-0.01772
 942.06; 9649.150;  197.150; 9160.450;-0.02306
 942.62; 9612.817;  184.817; 9036.783;-0.02738
 943.17; 9554.817;  195.150; 8966.450;-0.02820
 943.72; 9397.150;  180.483; 8903.117;-0.02393
 944.28; 9317.483;  199.483; 8795.117;-0.02562
 944.83; 9261.150;  184.150; 8766.783;-0.02432
 945.38; 9226.150;  194.483; 8735.117;-0.02428
 945.94; 9089.817;  186.483; 8804.450;-0.01415
 946.49; 9042.150;  205.150; 8772.783;-0.01344
 947.04; 9009.150;  208.817; 8738.117;-0.01359
 947.60; 8993.483;  215.150; 8638.117;-0.01795
 948.15; 8953.483;  203.483; 8519.117;-0.02211
 948.70; 8831.817;  212.817; 8413.783;-0.02159
 949.25; 8718.150;  206.150; 8325.117;-0.02053
 949.81; 8574.150;  208.817; 8271.117;-0.01602
 950.36; 8509.817;  198.483; 8157.117;-0.01883
 950.91; 8351.150;  207.150; 8037.783;-0.01704
 951.46; 8191.150;  203.817; 7873.117;-0.01765
 952.02; 8028.817;  207.150; 7734.117;-0.01668
 952.57; 7954.817;  207.150; 7606.450;-0.01998
 953.12; 7865.150;  218.483; 7526.117;-0.01970
 953.67; 7754.483;  218.150; 7443.783;-0.01828
 954.23; 7627.150;  215.817; 7359.450;-0.01598
 954.78; 7505.483;  208.150; 7234.450;-0.01644
 955.33; 7401.817;  218.150; 7119.783;-0.01739
 955.88; 7322.817;  217.150; 6980.117;-0.02147
 956.44; 7230.817;  230.483; 6838.450;-0.02505
 956.99; 7126.483;  228.817; 6737.117;-0.02523
 957.54; 7076.483;  223.817; 6672.783;-0.02637
 958.09; 7031.150;  222.150; 6636.783;-0.02591
 958.64; 6967.150;  206.817; 6607.450;-0.02375
 959.20; 6835.150;  203.483; 6532.450;-0.02029
 959.75; 6773.817;  199.817; 6496.450;-0.01872
 960.30; 6740.150;  218.150; 6441.783;-0.02034
 960.85; 6730.817;  225.150; 6424.450;-0.02095
 961.40; 6748.150;  228.817; 6381.117;-0.02517
 961.95; 6741.483;  231.817; 6360.783;-0.02617
 962.51; 6778.150;  239.483; 6360.117;-0.02869
 963.06; 6728.483;  242.817; 6380.117;-0.02398
 963.61; 6755.150;  234.150; 6314.783;-0.03037
 964.16; 6660.483;  235.150; 6258.450;-0.02806
 964.71; 6667.817;  222.483; 6212.117;-0.03185
 965.26; 6662.817;  213.150; 6253.117;-0.02850
 965.81; 6694.483;  210.817; 6289.117;-0.02804
 966.36; 6689.150;  208.483; 6323.783;-0.02520
 966.92; 6637.817;  216.150; 6305.117;-0.02310
 967.47; 6708.150;  218.483; 6338.117;-0.02550
 968.02; 6669.817;  232.483; 6354.117;-0.02184
 968.57; 6692.817;  234.817; 6375.450;-0.02188
 969.12; 6675.483;  219.817; 6368.783;-0.02114
 969.67; 6768.483;  204.483; 6420.783;-0.02364
 970.22; 6856.483;  194.150; 6469.783;-0.02597
 970.77; 6943.483;  199.817; 6539.117;-0.02685
 971.32; 7049.483;  197.483; 6593.117;-0.02993
 971.87; 7118.817;  198.817; 6693.117;-0.02757
 972.42; 7231.150;  215.150; 6793.117;-0.02800
 972.98; 7309.817;  220.817; 6908.783;-0.02529
 973.53; 7396.483;  231.483; 6996.117;-0.02497
 974.08; 7416.150;  215.483; 7040.450;-0.02327
 974.63; 7454.150;  223.483; 7078.450;-0.02317
 975.18; 7505.150;  218.483; 7103.117;-0.02465
 975.73; 7581.150;  224.817; 7157.450;-0.02576
 976.28; 7656.483;  221.483; 7219.117;-0.02633
 976.83; 7710.150;  221.483; 7315.450;-0.02352
 977.38; 7739.817;  219.483; 7373.783;-0.02167
 977.93; 7710.817;  222.150; 7387.450;-0.01917
 978.48; 7731.483;  228.483; 7365.783;-0.02170
 979.03; 7750.483;  234.817; 7358.117;-0.02329
 979.58; 7776.483;  221.483; 7329.117;-0.02651
 980.13; 7794.150;  207.150; 7367.783;-0.02512
 980.68; 7745.150;  186.483; 7310.450;-0.02572
 981.23; 7701.483;  185.817; 7278.117;-0.02518
 981.78; 7673.483;  207.150; 7207.450;-0.02799
 982.33; 7665.817;  219.150; 7257.117;-0.02451
 982.88; 7624.150;  232.483; 7211.783;-0.02493
 983.43; 7512.483;  218.150; 7145.783;-0.02240
 983.98; 7452.483;  215.150; 6984.117;-0.02906
 984.53; 7373.150;  203.817; 6873.450;-0.03138
 985.08; 7335.150;  209.817; 6835.783;-0.03156
 985.63; 7241.817;  211.150; 6787.117;-0.02904
 986.18; 7141.817;  218.817; 6756.783;-0.02485
 986.73; 6982.483;  218.483; 6610.450;-0.02457
 987.27; 6880.150;  227.483; 6521.117;-0.02409
 987.82; 6826.483;  238.483; 6431.783;-0.02683
 988.37; 6813.150;  243.150; 6400.783;-0.02815
 988.92; 6732.483;  234.150; 6351.117;-0.02627
 989.47; 6644.817;  214.483; 6285.117;-0.02500
 990.02; 6540.483;  208.483; 6199.117;-0.02407
 990.57; 6433.483;  208.150; 6083.117;-0.02516
 991.12; 6363.483;  215.150; 6044.450;-0.02314
 991.67; 6303.817;  213.817; 5969.117;-0.02455
 992.22; 6215.483;  200.483; 5915.450;-0.02222
 992.77; 6085.483;  200.150; 5802.450;-0.02140
 993.31; 5945.817;  204.817; 5735.783;-0.01619
 993.86; 5862.817;  230.483; 5683.783;-0.01403
 994.41; 5775.483;  235.150; 5580.117;-0.01559
 994.96; 5682.150;  226.483; 5473.117;-0.01697
 995.51; 5608.483;  218.817; 5377.783;-0.01900
 996.06; 5576.817;  208.483; 5293.783;-0.02352
 996.61; 5485.817;  222.483; 5201.783;-0.02409
 997.15; 5338.817;  236.150; 5083.450;-0.02230
 997.70; 5213.483;  241.150; 4965.117;-0.02225
 998.25; 5095.483;  247.483; 4873.450;-0.02036
 998.80; 4959.483;  248.483; 4740.117;-0.02071
 999.35; 4761.150;  249.483; 4623.450;-0.01346
 999.90; 4640.150;  236.150; 4455.117;-0.01864
1000.44; 4564.817;  224.483; 4340.450;-0.02305
1000.99; 4470.483;  232.483; 4190.783;-0.02965
1001.54; 4321.150;  237.150; 4067.450;-0.02785
1002.09; 4178.150;  231.817; 3939.117;-0.02714
1002.64; 4088.483;  238.483; 3855.450;-0.02712
1003.18; 3987.483;  240.483; 3766.783;-0.02636
1003.73; 3879.483;  238.483; 3661.450;-0.02682
1004.28; 3742.817;  226.817; 3584.450;-0.02002
1004.83; 3694.817;  209.483; 3488.117;-0.02655
1005.38; 3614.150;  210.150; 3420.783;-0.02540
1005.92; 3590.817;  219.150; 3321.783;-0.03611
1006.47; 3489.483;  236.817; 3231.783;-0.03585
1007.02; 3419.817;  235.483; 3140.117;-0.03993
1007.57; 3281.817;  222.817; 3087.450;-0.02851
1008.11; 3190.150;  211.817; 3028.450;-0.02424
1008.66; 3110.483;  205.150; 2973.450;-0.02098
1009.21; 3076.483;  192.483; 2907.783;-0.02618
1009.75; 3008.817;  177.817; 2862.117;-0.02311
1010.30; 2922.483;  170.150; 2793.117;-0.02091
1010.85; 2848.817;  176.817; 2712.783;-0.02269
1011.40; 2790.483;  204.150; 2628.450;-0.02810
1011.94; 2748.817;  221.817; 2545.783;-0.03638
1012.49; 2649.483;  216.483; 2464.450;-0.03435
1013.04; 2523.483;  194.150; 2362.117;-0.03118
1013.58; 2404.483;  184.150; 2325.117;-0.01581
1014.13; 2340.817;  188.483; 2268.117;-0.01492
1014.68; 2302.150;  196.483; 2233.450;-0.01441
1015.23; 2292.483;  203.150; 2181.450;-0.02372
1015.77; 2232.817;  199.817; 2113.117;-0.02635
1016.32; 2181.817;  204.817; 2072.450;-0.02472
1016.87; 2119.483;  209.483; 2012.783;-0.02497
1017.41; 2054.817;  206.817; 1977.450;-0.01857
1017.96; 2029.483;  194.817; 1953.450;-0.01838
1018.50; 1980.150;  186.483; 1926.450;-0.01320
1019.05; 1951.817;  188.483; 1903.450;-0.01208
1019.60; 1890.483;  182.817; 1815.783;-0.01943
1020.14; 1877.483;  196.150; 1752.783;-0.03347
1020.69; 1833.483;  196.150; 1698.117;-0.03748
1021.24; 1768.150;  209.483; 1650.450;-0.03410
1021.78; 1658.150;  188.483; 1620.450;-0.01129
1022.33; 1598.817;  190.150; 1592.450;-0.00197
1022.87; 1567.817;  182.817; 1587.783; 0.00622
1023.42; 1543.150;  198.150; 1567.117; 0.00767
1023.97; 1513.817;  200.150; 1516.117; 0.00076
1024.51; 1491.483;  212.150; 1465.117;-0.00904
1025.06; 1463.817;  200.483; 1401.117;-0.02211
1025.60; 1445.817;  198.817; 1340.783;-0.03821
1026.15; 1405.483;  181.150; 1307.783;-0.03612
1026.70; 1359.483;  185.483; 1284.783;-0.02855
1027.24; 1318.817;  195.483; 1279.783;-0.01536
1027.79; 1300.817;  200.483; 1270.450;-0.01215
1028.33; 1293.150;  197.483; 1252.450;-0.01644
1028.88; 1262.483;  188.817; 1215.450;-0.01945
1029.42; 1242.150;  208.150; 1198.450;-0.01875
1029.97; 1213.817;  197.817; 1156.450;-0.02524
1030.51; 1188.817;  190.150; 1127.117;-0.02770
1031.06; 1149.150;  182.817; 1088.783;-0.02801
1031.61; 1139.817;  192.483; 1063.117;-0.03667
1032.15; 1130.817;  210.150; 1050.450;-0.03967
1032.70; 1112.483;  202.817; 1024.117;-0.04438
1033.24; 1073.817;  206.483; 1018.117;-0.02883
1033.79; 1059.483;  200.817; 1020.450;-0.02020
1034.33; 1046.817;  199.817; 1016.450;-0.01586
1034.88; 1042.483;  201.817; 1008.783;-0.01777
1035.42; 1006.483;  202.817;  979.450;-0.01486
1035.97;  987.150;  204.483;  950.450;-0.02086
1036.51;  977.817;  206.483;  931.450;-0.02692
1037.06;  998.150;  200.817;  944.117;-0.03048
1037.60; 1009.483;  207.150;  948.783;-0.03417
1038.14;  988.150;  204.150;  928.783;-0.03420
1038.69;  983.817;  222.150;  927.783;-0.03319
1039.23;  957.150;  234.483;  935.783;-0.01303
1039.78;  960.817;  235.150;  948.783;-0.00726
1040.32;  937.817;  224.483;  915.783;-0.01363
1040.87;  950.483;  208.483;  887.117;-0.03877
1041.41;  956.817;  198.150;  864.117;-0.05660
1041.96;  944.817;  200.817;  882.783;-0.03781
1042.50;  949.817;  197.817;  893.117;-0.03405
1043.04;  920.483;  213.817;  899.117;-0.01333
1043.59;  917.483;  217.150;  867.450;-0.03219
1044.13;  870.150;  212.483;  869.450;-0.00046
1044.68;  870.817;  205.817;  862.117;-0.00572
1045.22;  856.150;  199.150;  873.783; 0.01150
1045.76;  878.150;  201.817;  869.450;-0.00562
1046.31;  872.483;  193.483;  861.783;-0.00690
1046.85;  889.483;  200.483;  842.117;-0.03093
1047.40;  856.483;  202.483;  813.783;-0.02932
1047.94;  859.150;  215.150;  808.783;-0.03537
1048.48;  826.150;  211.150;  810.117;-0.01147
1049.03;  829.150;  214.483;  793.450;-0.02599
1049.57;  819.817;  229.150;  787.117;-0.02473
1050.11;  822.483;  222.817;  774.117;-0.03652
1050.66;  815.817;  218.483;  779.117;-0.02754
1051.20;  816.483;  206.483;  794.450;-0.01598
1051.74;  812.817;  200.817;  788.117;-0.01789
1052.29;  806.817;  200.150;  780.783;-0.01905
1052.83;  779.483;  199.150;  748.117;-0.02413
1053.37;  776.150;  224.817;  744.783;-0.02544
1053.92;  767.150;  234.150;  739.783;-0.02289
1054.46;  766.150;  236.483;  734.117;-0.02709
1055.00;  763.817;  231.483;  739.117;-0.02063
1055.55;  765.483;  230.817;  738.117;-0.02282
1056.09;  761.150;  223.817;  747.783;-0.01094
1056.63;  748.483;  215.817;  711.783;-0.03100
1057.17;  745.483;  216.483;  709.117;-0.03093
1057.72;  737.483;  225.150;  697.450;-0.03533
1058.26;  711.817;  223.483;  705.783;-0.00540
1058.80;  706.150;  229.817;  700.450;-0.00523
1059.35;  706.483;  230.483;  686.450;-0.01867
1059.89;  692.817;  230.150;  672.450;-0.01955
1060.43;  675.483;  227.817;  654.783;-0.02056
1060.97;  658.817;  223.817;  667.117; 0.00821
1061.52;  670.817;  231.150;  682.450; 0.01134
1062.06;  665.817;  231.483;  671.450; 0.00560
1062.60;  662.817;  236.483;  658.450;-0.00447
1063.14;  660.817;  232.483;  640.783;-0.02080
1063.69;  645.150;  216.483;  640.117;-0.00513
1064.23;  641.817;  208.817;  619.783;-0.02268
1064.77;  625.817;  200.483;  598.450;-0.02888
1065.31;  626.150;  201.817;  577.450;-0.05294
1065.85;  610.483;  206.483;  567.117;-0.04932
1066.40;  615.483;  205.150;  579.450;-0.03992
1066.94;  618.483;  217.817;  579.117;-0.04492
1067.48;  621.817;  209.150;  587.783;-0.03738
1068.02;  600.483;  233.817;  562.450;-0.04756
1068.56;  577.483;  216.817;  564.783;-0.01557
1069.10;  557.483;  212.817;  549.783;-0.00981
1069.65;  563.817;  195.817;  566.450; 0.00310
1070.19;  568.150;  208.817;  566.783;-0.00165
1070.73;  574.150;  223.817;  582.783; 0.01057
1071.27;  573.150;  215.817;  567.117;-0.00740
1071.81;  569.817;  207.150;  562.117;-0.00932
1072.35;  588.817;  201.817;  549.117;-0.04701
1072.90;  579.817;  197.150;  546.783;-0.03921
1073.44;  576.817;  202.817;  540.117;-0.04486
1073.98;  559.150;  206.150;  531.450;-0.03549
1074.52;  550.817;  224.483;  538.783;-0.01632
1075.06;  556.817;  218.483;  542.450;-0.01884
1075.60;  528.150;  207.483;  531.450; 0.00445
1076.14;  525.817;  204.817;  514.117;-0.01613
1076.68;  506.483;  207.150;  504.450;-0.00296
1077.22;  525.817;  225.817;  504.783;-0.03157
1077.76;  525.483;  214.817;  498.117;-0.04005
1078.31;  521.150;  229.817;  499.783;-0.03308
1078.85;  507.150;  226.483;  517.117; 0.01515
1079.39;  508.817;  243.817;  525.450; 0.02644
1079.93;  518.483;  237.817;  507.783;-0.01688
1080.47;  514.483;  227.483;  476.450;-0.06174
1081.01;  517.817;  216.150;  474.783;-0.06684
1081.55;  512.817;  208.483;  488.783;-0.03573
1082.09;  514.150;  205.817;  488.783;-0.03729
1082.63;  514.817;  210.150;  496.450;-0.02700
1083.17;  513.483;  221.150;  500.783;-0.01929
1083.71;  508.483;  228.817;  501.450;-0.01106
1084.25;  490.150;  224.483;  471.117;-0.03229
1084.79;  476.150;  214.483;  446.450;-0.05232
1085.33;  482.483;  202.817;  450.783;-0.05225
1085.87;  477.150;  199.483;  468.450;-0.01383
1086.41;  479.817;  214.483;  471.450;-0.01392
1086.95;  477.483;  222.150;  467.117;-0.01800
1087.49;  482.483;  225.817;  454.783;-0.04960
1088.03;  482.483;  216.817;  454.117;-0.04904
1088.57;  473.150;  219.817;  450.783;-0.04014
1089.11;  465.150;  222.150;  448.117;-0.03156
1089.65;  486.483;  233.150;  458.783;-0.05029
1090.19;  473.483;  238.483;  468.117;-0.01003
1090.73;  482.817;  240.483;  471.783;-0.02024
1091.27;  468.150;  238.817;  466.117;-0.00387
1091.81;  488.150;  238.483;  458.117;-0.05566
1092.35;  487.483;  247.483;  461.450;-0.04987
1092.89;  475.150;  232.150;  457.450;-0.03285
1093.43;  466.483;  223.817;  445.783;-0.03872
1093.97;  445.150;  210.150;  441.117;-0.00752
1094.51;  442.483;  208.483;  440.450;-0.00379
1095.04;  428.817;  218.483;  442.783; 0.02792
1095.58;  449.817;  238.817;  436.783;-0.02769
1096.12;  444.150;  242.817;  428.783;-0.03448
1096.66;  458.150;  239.817;  430.450;-0.05892
1097.20;  444.817;  235.817;  449.450; 0.00952
1097.74;  453.817;  246.817;  456.783; 0.00618
1098.28;  438.483;  235.817;  457.117; 0.03820
1098.82;  442.483;  230.483;  453.117; 0.02125
1099.36;  440.150;  228.150;  446.450; 0.01272
1099.89;  449.483;  230.150;  447.450;-0.00404

