
Integration time [ms]:   0.300
Averaging Nr. [scans]: 1
Smoothing Nr. [pixels]: 1
Data measured with spectrometer [name]: 1906252U1
Wave   ;Sample   ;Dark     ;Reference;Absorbance
[nm]   ;[counts] ;[counts] ;[counts] ;[A.U]

 161.30;  290.747;  271.207;  271.637; 0.00000
 161.90;  272.449;  265.524;  261.712; 0.00000
 162.51;  276.156;  259.038;  260.433;-1.08911
 163.11;  270.899;  265.693;  251.834; 0.00000
 163.71;  277.197;  276.696;  266.803; 0.00000
 164.31;  266.204;  294.270;  273.488; 0.00000
 164.91;  278.466;  288.393;  287.410; 0.00000
 165.52;  274.663;  277.299;  279.261; 5.00000
 166.12;  269.473;  271.979;  273.718; 5.00000
 166.72;  257.181;  272.971;  259.755; 0.00000
 167.32;  258.462;  271.656;  271.040; 0.00000
 167.93;  264.619;  261.266;  267.518; 0.27052
 168.53;  270.058;  254.112;  260.296;-0.41141
 169.13;  280.682;  264.427;  257.261; 0.00000
 169.73;  284.439;  271.677;  266.351; 0.00000
 170.33;  303.241;  291.614;  320.561; 0.39614
 170.94;  327.614;  317.756;  347.746; 0.48316
 171.54;  350.013;  335.278;  387.239; 0.54733
 172.14;  356.971;  338.926;  375.538; 0.30727
 172.74;  339.958;  324.358;  373.181; 0.49549
 173.34;  324.339;  319.589;  355.569; 0.87934
 173.95;  316.697;  309.596;  343.923; 0.68432
 174.55;  325.335;  318.289;  355.228; 0.71951
 175.15;  334.261;  320.689;  367.155; 0.53448
 175.75;  340.643;  322.370;  380.195; 0.50030
 176.35;  335.800;  332.415;  382.036; 1.16602
 176.95;  345.318;  327.740;  392.907; 0.56905
 177.56;  341.430;  327.608;  398.355; 0.70914
 178.16;  339.383;  316.738;  399.298; 0.56178
 178.76;  332.253;  316.306;  398.487; 0.71209
 179.36;  343.122;  310.874;  401.343; 0.44799
 179.96;  345.600;  304.800;  395.813; 0.34843
 180.56;  357.751;  308.938;  392.969; 0.23590
 181.17;  355.547;  318.009;  403.448; 0.35719
 181.77;  364.273;  318.897;  417.181; 0.33566
 182.37;  360.873;  306.653;  404.111; 0.25466
 182.97;  365.551;  319.309;  413.789; 0.31031
 183.57;  380.378;  323.525;  427.944; 0.26403
 184.17;  398.544;  336.736;  473.104; 0.34367
 184.78;  412.365;  316.624;  484.587; 0.24412
 185.38;  407.939;  315.012;  504.833; 0.31020
 185.98;  425.064;  315.783;  504.638; 0.23758
 186.58;  445.870;  316.598;  510.449; 0.17596
 187.18;  462.427;  313.002;  491.678; 0.07764
 187.78;  470.149;  324.256;  526.070; 0.14091
 188.38;  468.240;  331.840;  541.159; 0.18599
 188.98;  481.947;  337.804;  574.199; 0.21484
 189.59;  492.625;  332.575;  567.529; 0.16673
 190.19;  498.825;  326.870;  580.708; 0.16914
 190.79;  504.047;  326.914;  573.939; 0.14444
 191.39;  499.382;  317.159;  564.285; 0.13232
 191.99;  491.471;  322.498;  545.363; 0.12022
 192.59;  468.711;  317.307;  539.929; 0.16743
 193.19;  440.813;  313.765;  525.712; 0.22226
 193.79;  448.043;  325.164;  530.280; 0.22252
 194.39;  448.773;  328.250;  517.658; 0.19633
 195.00;  451.938;  327.216;  511.139; 0.16869
 195.60;  422.189;  305.566;  480.732; 0.17667
 196.20;  398.586;  304.088;  469.473; 0.24307
 196.80;  385.442;  305.278;  453.989; 0.26837
 197.40;  385.297;  313.686;  455.186; 0.29578
 198.00;  387.893;  320.693;  452.457; 0.29243
 198.60;  385.054;  317.270;  442.943; 0.26811
 199.20;  372.634;  312.435;  427.513; 0.28140
 199.80;  355.222;  303.957;  416.753; 0.34247
 200.40;  336.667;  299.492;  396.868; 0.41820
 201.00;  335.222;  293.841;  371.434; 0.27303
 201.60;  331.520;  292.845;  340.403; 0.08980
 202.21;  336.688;  298.995;  352.240; 0.15002
 202.81;  333.676;  303.760;  367.883; 0.33112
 203.41;  339.059;  301.801;  377.921; 0.31029
 204.01;  335.415;  296.447;  373.611; 0.29671
 204.61;  330.942;  287.965;  374.799; 0.30545
 205.21;  324.817;  280.528;  391.328; 0.39824
 205.81;  329.396;  276.000;  394.567; 0.34645
 206.41;  331.156;  281.190;  389.667; 0.33666
 207.01;  337.993;  291.585;  373.516; 0.24686
 207.61;  335.024;  290.832;  349.221; 0.12098
 208.21;  332.563;  294.007;  340.088; 0.07742
 208.81;  321.857;  285.376;  350.048; 0.24865
 209.41;  309.413;  292.971;  355.294; 0.57868
 210.01;  302.605;  286.985;  361.835; 0.68051
 210.61;  306.098;  290.534;  351.990; 0.59643
 211.21;  293.341;  293.399;  356.219; 5.00000
 211.81;  308.399;  300.157;  352.258; 0.80081
 212.41;  295.653;  301.896;  344.513; 5.00000
 213.01;  302.748;  296.332;  351.625; 0.93539
 213.61;  293.792;  285.263;  357.339; 0.92688
 214.21;  304.542;  282.939;  368.411; 0.59731
 214.81;  311.529;  278.704;  361.387; 0.40121
 215.41;  302.124;  282.466;  362.645; 0.61053
 216.01;  314.999;  278.247;  362.189; 0.35869
 216.61;  317.928;  287.920;  357.792; 0.36707
 217.21;  319.518;  290.599;  357.391; 0.36354
 217.81;  314.932;  297.221;  367.800; 0.60043
 218.41;  322.216;  301.628;  379.081; 0.57543
 219.01;  328.297;  307.801;  388.505; 0.59523
 219.61;  321.698;  301.739;  384.906; 0.61981
 220.21;  315.647;  297.568;  378.507; 0.65098
 220.81;  315.192;  283.737;  372.713; 0.45159
 221.41;  323.836;  284.091;  376.024; 0.36419
 222.01;  312.199;  280.426;  372.049; 0.45995
 222.61;  321.257;  298.953;  367.451; 0.48730
 223.21;  312.887;  301.813;  357.103; 0.69836
 223.81;  319.799;  301.952;  360.676; 0.51724
 224.41;  311.437;  281.875;  343.618; 0.31986
 225.01;  319.080;  269.317;  340.250; 0.15395
 225.61;  318.849;  274.108;  341.033; 0.17489
 226.21;  310.718;  273.112;  349.918; 0.31014
 226.81;  309.637;  286.490;  349.175; 0.43267
 227.41;  317.412;  284.059;  344.282; 0.25663
 228.01;  327.715;  302.172;  351.241; 0.28354
 228.61;  335.632;  306.727;  360.474; 0.26938
 229.21;  328.857;  303.825;  362.700; 0.37144
 229.81;  330.938;  308.998;  372.791; 0.46354
 230.41;  327.542;  299.055;  383.396; 0.47139
 231.01;  332.416;  300.808;  405.942; 0.52195
 231.61;  326.901;  287.307;  401.095; 0.45847
 232.21;  331.973;  300.328;  383.489; 0.41961
 232.81;  331.424;  296.307;  370.928; 0.32734
 233.41;  335.159;  302.578;  372.995; 0.33471
 234.00;  326.736;  298.240;  379.918; 0.45731
 234.60;  318.768;  290.487;  363.623; 0.41264
 235.20;  317.738;  295.152;  359.264; 0.45310
 235.80;  323.575;  295.330;  365.432; 0.39479
 236.40;  336.527;  302.765;  379.044; 0.35398
 237.00;  337.963;  303.584;  384.824; 0.37347
 237.60;  321.778;  294.000;  377.651; 0.47877
 238.20;  314.344;  295.121;  389.214; 0.68974
 238.80;  303.146;  274.112;  389.668; 0.59988
 239.40;  324.566;  279.177;  403.402; 0.43726
 240.00;  315.803;  284.599;  402.640; 0.57782
 240.59;  334.790;  298.133;  401.312; 0.44943
 241.19;  331.551;  297.989;  399.745; 0.48172
 241.79;  336.190;  288.710;  384.715; 0.30578
 242.39;  330.390;  292.222;  383.909; 0.38061
 242.99;  324.931;  286.642;  375.121; 0.36377
 243.59;  332.558;  289.230;  388.763; 0.36120
 244.19;  317.363;  286.160;  385.560; 0.50319
 244.79;  317.138;  287.511;  384.652; 0.51571
 245.39;  323.376;  287.293;  395.554; 0.47717
 245.98;  331.607;  273.053;  391.453; 0.30579
 246.58;  339.101;  274.487;  389.290; 0.24962
 247.18;  346.832;  285.342;  384.364; 0.20693
 247.78;  353.571;  295.696;  398.758; 0.25061
 248.38;  355.646;  288.656;  421.162; 0.29623
 248.98;  326.118;  277.356;  419.988; 0.46613
 249.58;  331.135;  265.673;  430.671; 0.40149
 250.17;  319.656;  275.285;  426.842; 0.53348
 250.77;  332.779;  283.143;  431.967; 0.47688
 251.37;  324.220;  286.929;  425.089; 0.56877
 251.97;  323.615;  270.293;  429.805; 0.47589
 252.57;  326.704;  265.298;  436.882; 0.44627
 253.17;  331.982;  272.929;  449.172; 0.47487
 253.77;  341.763;  284.186;  466.282; 0.50005
 254.36;  345.606;  295.474;  468.774; 0.53869
 254.96;  343.729;  295.333;  480.567; 0.58291
 255.56;  338.797;  288.604;  484.301; 0.59094
 256.16;  334.683;  278.462;  506.509; 0.60813
 256.76;  315.948;  277.524;  496.109; 0.75502
 257.36;  327.447;  276.735;  508.603; 0.66013
 257.95;  333.229;  264.992;  503.713; 0.54387
 258.55;  346.260;  264.239;  518.084; 0.49065
 259.15;  337.634;  260.564;  510.454; 0.51086
 259.75;  328.176;  269.345;  523.998; 0.63634
 260.35;  339.796;  267.461;  538.318; 0.57339
 260.94;  331.215;  268.819;  539.764; 0.63773
 261.54;  343.229;  275.530;  547.771; 0.60437
 262.14;  339.905;  279.723;  553.422; 0.65781
 262.74;  352.002;  296.084;  592.169; 0.72387
 263.34;  367.097;  285.302;  604.600; 0.59147
 263.93;  364.704;  271.414;  619.201; 0.57148
 264.53;  366.952;  269.158;  628.783; 0.56554
 265.13;  353.721;  270.950;  628.566; 0.63554
 265.73;  353.627;  275.426;  648.466; 0.67854
 266.33;  364.902;  278.566;  678.397; 0.66568
 266.92;  345.522;  275.029;  689.673; 0.76953
 267.52;  356.905;  279.954;  705.726; 0.74296
 268.12;  349.107;  273.264;  717.281; 0.76748
 268.72;  356.322;  281.951;  749.175; 0.79812
 269.31;  351.982;  293.596;  782.505; 0.92292
 269.91;  341.172;  296.813;  783.686; 1.04044
 270.51;  358.253;  298.884;  823.747; 0.94649
 271.11;  353.534;  296.018;  844.685; 0.97953
 271.70;  350.857;  281.274;  877.686; 0.93304
 272.30;  351.075;  270.568;  887.924; 0.88470
 272.90;  340.902;  264.784;  909.412; 0.92782
 273.50;  362.694;  274.785;  916.521; 0.86332
 274.09;  352.701;  285.359;  947.539; 0.99269
 274.69;  359.836;  293.425;  961.690; 1.00271
 275.29;  362.861;  297.126; 1011.041; 1.03585
 275.89;  369.678;  301.162; 1057.168; 1.04273
 276.48;  386.229;  306.441; 1108.365; 1.00220
 277.08;  381.204;  303.217; 1149.330; 1.03540
 277.68;  404.795;  300.562; 1156.928; 0.91466
 278.28;  410.261;  297.934; 1188.748; 0.89930
 278.87;  414.390;  305.120; 1219.213; 0.92249
 279.47;  417.542;  316.402; 1279.019; 0.97853
 280.07;  423.396;  311.564; 1306.537; 0.94925
 280.66;  451.326;  305.599; 1329.806; 0.84685
 281.26;  460.797;  299.502; 1356.605; 0.81649
 281.86;  477.325;  299.353; 1408.460; 0.79462
 282.46;  478.526;  289.111; 1464.667; 0.79283
 283.05;  494.377;  270.001; 1525.842; 0.74796
 283.65;  516.118;  269.267; 1577.248; 0.72417
 284.25;  522.205;  276.537; 1628.707; 0.74068
 284.84;  523.300;  297.639; 1660.819; 0.78110
 285.44;  550.517;  304.585; 1722.349; 0.76079
 286.04;  572.805;  306.626; 1767.304; 0.73938
 286.63;  584.702;  299.604; 1827.551; 0.72911
 287.23;  578.738;  285.934; 1878.582; 0.73554
 287.83;  592.806;  285.987; 1956.635; 0.73600
 288.42;  620.976;  282.947; 2012.456; 0.70897
 289.02;  654.867;  281.018; 2081.351; 0.68266
 289.62;  673.196;  274.153; 2105.373; 0.66172
 290.21;  699.371;  278.965; 2173.882; 0.65392
 290.81;  710.005;  296.139; 2171.832; 0.65630
 291.41;  726.450;  301.675; 2217.279; 0.65415
 292.00;  740.094;  287.695; 2273.257; 0.64236
 292.60;  752.422;  266.816; 2355.570; 0.63360
 293.20;  780.797;  269.053; 2441.953; 0.62799
 293.79;  789.033;  275.331; 2498.541; 0.63627
 294.39;  824.944;  284.326; 2544.463; 0.62124
 294.99;  832.253;  280.435; 2588.095; 0.62138
 295.58;  863.802;  284.687; 2619.961; 0.60557
 296.18;  890.746;  271.100; 2672.236; 0.58827
 296.78;  941.034;  267.474; 2741.524; 0.56503
 297.37;  986.416;  256.039; 2819.912; 0.54535
 297.97; 1012.948;  255.858; 2927.442; 0.54762
 298.57; 1045.060;  262.727; 2989.557; 0.54227
 299.16; 1087.273;  278.359; 3083.789; 0.54010
 299.76; 1101.849;  281.775; 3176.366; 0.54773
 300.35; 1111.527;  281.214; 3269.362; 0.55616
 300.95; 1129.953;  278.404; 3324.462; 0.55353
 301.55; 1188.319;  287.229; 3346.846; 0.53090
 302.14; 1231.497;  278.314; 3431.366; 0.51955
 302.74; 1260.995;  277.164; 3537.862; 0.52039
 303.33; 1294.049;  277.506; 3665.575; 0.52283
 303.93; 1361.751;  284.053; 3763.621; 0.50903
 304.53; 1421.200;  290.889; 3809.743; 0.49320
 305.12; 1477.206;  285.666; 3889.067; 0.48060
 305.72; 1489.558;  304.345; 3962.749; 0.48950
 306.31; 1507.962;  292.556; 4062.826; 0.49165
 306.91; 1533.373;  290.122; 4183.574; 0.49578
 307.51; 1577.873;  280.000; 4278.734; 0.48869
 308.10; 1649.524;  295.710; 4394.048; 0.48105
 308.70; 1716.871;  291.190; 4468.751; 0.46690
 309.29; 1784.592;  287.634; 4547.826; 0.45422
 309.89; 1846.790;  264.902; 4638.675; 0.44168
 310.48; 1883.897;  273.673; 4739.754; 0.44304
 311.08; 1911.924;  268.620; 4876.118; 0.44775
 311.68; 1928.837;  273.221; 4959.384; 0.45186
 312.27; 1959.405;  278.703; 5074.278; 0.45535
 312.87; 2030.651;  271.869; 5225.848; 0.44974
 313.46; 2088.481;  276.691; 5385.013; 0.45017
 314.06; 2180.693;  276.193; 5529.885; 0.44068
 314.65; 2234.707;  282.238; 5632.559; 0.43780
 315.25; 2291.077;  283.262; 5774.255; 0.43693
 315.85; 2339.365;  277.637; 5914.876; 0.43684
 316.44; 2382.427;  287.913; 6071.938; 0.44115
 317.04; 2450.481;  295.255; 6216.984; 0.43896
 317.63; 2506.827;  310.823; 6400.341; 0.44295
 318.23; 2582.097;  298.737; 6546.296; 0.43714
 318.82; 2663.694;  293.221; 6674.883; 0.43010
 319.42; 2763.363;  273.276; 6781.545; 0.41725
 320.01; 2845.447;  280.055; 6929.646; 0.41364
 320.61; 2893.805;  290.511; 7164.652; 0.42170
 321.20; 2912.787;  285.758; 7272.939; 0.42484
 321.80; 2958.216;  292.860; 7497.718; 0.43187
 322.39; 3037.673;  275.154; 7636.540; 0.42565
 322.99; 3082.348;  275.755; 7857.556; 0.43159
 323.58; 3203.012;  286.597; 7977.531; 0.42113
 324.18; 3255.837;  287.901; 8124.673; 0.42168
 324.77; 3366.166;  292.485; 8318.013; 0.41681
 325.37; 3419.985;  278.984; 8442.167; 0.41479
 325.96; 3500.785;  276.253; 8588.958; 0.41128
 326.56; 3539.919;  298.768; 8771.095; 0.41730
 327.15; 3582.261;  300.036; 8947.778; 0.42073
 327.75; 3667.017;  300.925; 9129.536; 0.41877
 328.34; 3770.667;  272.723; 9291.838; 0.41135
 328.94; 3877.078;  266.072; 9447.905; 0.40530
 329.53; 3953.383;  277.765; 9658.876; 0.40692
 330.13; 4080.622;  293.098; 9872.460; 0.40298
 330.72; 4120.705;  297.428;10112.576; 0.40946
 331.32; 4205.863;  296.807;10347.750; 0.41013
 331.91; 4305.517;  286.021;10578.045; 0.40833
 332.51; 4439.263;  290.846;10832.428; 0.40502
 333.10; 4533.524;  280.941;11112.686; 0.40605
 333.69; 4584.369;  268.720;11343.870; 0.40930
 334.29; 4599.135;  259.020;11372.294; 0.40834
 334.88; 4643.073;  263.526;11404.218; 0.40548
 335.48; 4628.356;  274.151;11347.513; 0.40537
 336.07; 4670.874;  277.361;11521.065; 0.40810
 336.67; 4671.576;  271.793;11561.792; 0.40926
 337.26; 4757.524;  270.478;11724.744; 0.40701
 337.86; 4799.212;  274.661;11795.073; 0.40589
 338.45; 4860.037;  285.081;11996.201; 0.40821
 339.04; 4872.885;  280.248;12122.714; 0.41138
 339.64; 4947.666;  279.247;12324.855; 0.41166
 340.23; 5006.027;  276.541;12444.594; 0.41041
 340.83; 5120.766;  283.446;12579.002; 0.40514
 341.42; 5162.898;  284.034;12728.085; 0.40664
 342.02; 5200.874;  280.810;12860.717; 0.40771
 342.61; 5204.619;  285.029;12994.842; 0.41221
 343.20; 5262.786;  280.703;13173.363; 0.41293
 343.80; 5333.625;  275.024;13326.514; 0.41163
 344.39; 5421.234;  277.525;13574.777; 0.41249
 344.99; 5457.375;  284.701;13698.586; 0.41384
 345.58; 5510.121;  281.629;13941.331; 0.41706
 346.17; 5562.407;  272.425;14086.941; 0.41688
 346.77; 5673.310;  263.601;14425.499; 0.41795
 347.36; 5779.890;  267.766;14640.403; 0.41622
 347.96; 5835.563;  271.456;14918.073; 0.42034
 348.55; 5893.559;  272.039;15018.413; 0.41883
 349.14; 5957.405;  269.152;15148.264; 0.41760
 349.74; 6100.788;  282.193;15379.635; 0.41409
 350.33; 6234.107;  292.264;15619.281; 0.41154
 350.92; 6331.237;  292.029;15990.758; 0.41488
 351.52; 6340.521;  276.988;16197.719; 0.41924
 352.11; 6344.502;  277.642;16449.038; 0.42578
 352.70; 6471.932;  293.221;16652.467; 0.42287
 353.30; 6601.162;  299.069;16923.354; 0.42126
 353.89; 6682.962;  289.556;17199.826; 0.42242
 354.49; 6679.920;  295.537;17471.125; 0.42979
 355.08; 6753.040;  303.789;17648.240; 0.42965
 355.67; 6905.013;  306.509;17850.877; 0.42469
 356.27; 7006.558;  292.678;18013.082; 0.42150
 356.86; 7065.857;  288.376;18230.048; 0.42279
 357.45; 7146.139;  297.756;18507.331; 0.42471
 358.05; 7224.098;  297.214;18684.613; 0.42398
 358.64; 7352.780;  292.504;18894.298; 0.42073
 359.23; 7418.305;  289.300;19081.825; 0.42096
 359.83; 7509.200;  289.121;19433.380; 0.42350
 360.42; 7554.078;  293.174;19722.600; 0.42747
 361.01; 7613.641;  287.355;19981.487; 0.42945
 361.61; 7777.036;  287.502;20183.522; 0.42431
 362.20; 7904.568;  294.987;20496.718; 0.42403
 362.79; 8001.463;  302.910;20634.303; 0.42176
 363.38; 7989.995;  301.613;20815.514; 0.42621
 363.98; 8041.875;  289.171;20943.715; 0.42556
 364.57; 8101.311;  277.744;21176.149; 0.42671
 365.16; 8198.308;  288.573;21351.502; 0.42536
 365.76; 8281.751;  293.720;21537.287; 0.42479
 366.35; 8366.023;  294.920;21731.542; 0.42422
 366.94; 8448.956;  286.459;21913.791; 0.42318
 367.53; 8446.961;  286.426;22067.466; 0.42636
 368.13; 8503.640;  291.994;22246.489; 0.42709
 368.72; 8557.107;  285.482;22413.295; 0.42735
 369.31; 8611.501;  292.281;22597.374; 0.42832
 369.91; 8698.661;  283.382;22746.877; 0.42641
 370.50; 8743.535;  291.699;22820.059; 0.42578
 371.09; 8861.075;  278.017;22946.909; 0.42179
 371.68; 8870.495;  286.967;23106.324; 0.42464
 372.28; 8979.746;  294.984;23340.584; 0.42383
 372.87; 9015.993;  297.367;23443.502; 0.42403
 373.46; 9094.762;  297.723;23614.255; 0.42333
 374.05; 9102.675;  287.889;23758.158; 0.42531
 374.65; 9159.342;  290.440;23950.173; 0.42614
 375.24; 9230.183;  272.918;24146.349; 0.42574
 375.83; 9369.864;  275.848;24331.370; 0.42246
 376.42; 9409.371;  273.516;24515.563; 0.42382
 377.02; 9468.641;  293.907;24527.502; 0.42182
 377.61; 9536.146;  288.112;24762.668; 0.42267
 378.20; 9603.275;  297.747;24944.118; 0.42301
 378.79; 9692.712;  297.015;25086.217; 0.42133
 379.38; 9720.948;  282.191;25204.109; 0.42167
 379.98; 9893.653;  267.243;25344.469; 0.41582
 380.57; 9984.575;  272.112;25606.751; 0.41639
 381.16;10082.602;  291.609;25727.129; 0.41461
 381.75;10069.958;  289.589;25767.151; 0.41580
 382.35;10106.405;  283.703;25937.612; 0.41692
 382.94;10170.159;  271.231;26182.039; 0.41789
 383.53;10385.884;  279.541;26558.760; 0.41502
 384.12;10518.432;  269.432;26865.627; 0.41414
 384.71;10638.495;  284.069;27028.687; 0.41211
 385.31;10746.345;  287.699;27353.893; 0.41295
 385.90;10871.883;  299.731;27598.110; 0.41197
 386.49;11008.443;  283.306;27919.987; 0.41108
 387.08;11087.068;  296.763;28085.602; 0.41084
 387.67;11318.393;  302.047;28384.267; 0.40639
 388.26;11450.208;  312.463;28670.094; 0.40587
 388.86;11591.879;  297.866;29041.131; 0.40569
 389.45;11669.697;  285.685;29324.329; 0.40668
 390.04;11776.189;  279.860;29566.863; 0.40612
 390.63;11917.628;  284.795;29878.048; 0.40551
 391.22;12011.628;  294.422;30097.179; 0.40543
 391.81;12167.077;  303.408;30368.117; 0.40384
 392.41;12294.409;  324.211;30517.642; 0.40181
 393.00;12400.148;  349.022;30747.606; 0.40183
 393.59;12534.836;  379.676;31111.212; 0.40282
 394.18;12711.193;  399.780;31505.223; 0.40253
 394.77;12879.845;  433.703;31930.599; 0.40323
 395.36;13064.495;  473.557;32244.356; 0.40197
 395.95;13131.021;  524.323;32561.017; 0.40505
 396.55;13249.638;  566.236;32856.406; 0.40583
 397.14;13345.895;  594.577;33298.717; 0.40905
 397.73;13551.502;  601.786;33627.642; 0.40659
 398.32;13778.396;  612.294;34204.404; 0.40678
 398.91;14026.598;  621.039;34614.988; 0.40412
 399.50;14271.097;  632.059;35200.379; 0.40389
 400.09;14569.929;  605.452;35675.306; 0.39991
 400.68;14871.046;  582.293;36366.134; 0.39869
 401.27;15175.204;  548.561;37014.694; 0.39675
 401.87;15488.728;  525.771;37604.957; 0.39411
 402.46;15680.554;  501.053;38119.893; 0.39415
 403.05;15994.707;  484.389;38675.942; 0.39135
 403.64;16245.243;  490.521;39240.769; 0.39086
 404.23;16616.591;  484.797;39841.080; 0.38733
 404.82;16842.883;  502.588;40438.695; 0.38811
 405.41;17096.694;  491.629;41140.816; 0.38881
 406.00;17399.915;  497.890;41752.976; 0.38754
 406.59;17736.162;  479.966;42383.807; 0.38531
 407.18;17985.801;  482.149;42943.385; 0.38486
 407.77;18172.791;  466.520;43500.038; 0.38568
 408.37;18325.739;  484.641;43973.019; 0.38695
 408.96;18546.909;  491.806;44465.898; 0.38660
 409.55;18846.635;  504.476;44970.283; 0.38458
 410.14;19116.851;  481.626;45459.452; 0.38266
 410.73;19362.542;  490.299;45905.805; 0.38138
 411.32;19563.154;  492.855;46441.730; 0.38192
 411.91;19759.686;  505.687;47060.216; 0.38344
 412.50;19898.795;  480.732;47624.639; 0.38522
 413.09;20094.598;  484.505;48110.411; 0.38536
 413.68;20277.131;  482.467;48573.257; 0.38551
 414.27;20495.792;  487.472;48936.919; 0.38408
 414.86;20605.858;  462.470;49236.309; 0.38405
 415.45;20758.320;  452.555;49687.411; 0.38465
 416.04;20964.002;  462.743;50083.734; 0.38388
 416.63;21164.545;  468.551;50542.275; 0.38372
 417.22;21359.294;  461.867;50754.683; 0.38141
 417.81;21519.768;  462.159;51068.477; 0.38080
 418.40;21620.308;  476.694;51393.675; 0.38168
 418.99;21691.172;  477.832;51737.830; 0.38317
 419.58;21760.764;  462.218;51969.382; 0.38352
 420.17;21896.785;  452.952;52248.392; 0.38299
 420.76;22030.908;  458.593;52499.836; 0.38245
 421.35;22180.840;  472.988;53005.769; 0.38381
 421.94;22277.576;  474.287;53203.501; 0.38353
 422.53;22432.057;  469.601;53402.299; 0.38204
 423.12;22471.935;  471.552;53493.823; 0.38203
 423.71;22457.996;  463.366;53670.857; 0.38366
 424.30;22401.007;  471.573;53819.883; 0.38609
 424.89;22467.474;  477.611;53888.037; 0.38540
 425.48;22435.826;  477.854;53974.356; 0.38673
 426.07;22362.868;  465.438;53940.695; 0.38776
 426.66;22197.701;  460.097;54040.507; 0.39179
 427.25;22283.981;  453.014;53995.096; 0.38962
 427.84;22260.950;  450.549;53912.043; 0.38938
 428.43;22153.353;  452.848;53711.442; 0.38992
 429.02;22026.468;  457.772;53797.552; 0.39323
 429.61;21948.381;  448.720;53826.107; 0.39493
 430.20;21896.398;  425.820;53758.443; 0.39515
 430.79;21725.533;  437.001;53531.580; 0.39690
 431.38;21504.177;  442.471;53315.543; 0.39974
 431.97;21240.422;  451.391;53001.434; 0.40274
 432.55;21052.332;  445.807;52690.011; 0.40403
 433.14;20971.066;  441.412;52704.411; 0.40581
 433.73;20845.739;  432.971;52655.054; 0.40795
 434.32;20728.309;  424.624;52606.263; 0.40994
 434.91;20550.451;  423.161;52233.737; 0.41063
 435.50;20383.588;  418.064;51971.869; 0.41198
 436.09;20178.709;  418.432;51687.970; 0.41407
 436.68;20045.727;  422.559;51624.303; 0.41652
 437.27;20023.565;  439.214;51661.122; 0.41755
 437.86;19831.691;  433.576;51508.561; 0.42045
 438.45;19700.453;  436.794;51330.326; 0.42192
 439.04;19443.097;  419.148;51043.637; 0.42506
 439.62;19225.786;  412.025;51000.963; 0.42958
 440.21;18973.219;  413.441;50885.373; 0.43448
 440.80;18843.715;  430.263;51024.538; 0.43897
 441.39;18798.327;  449.560;51081.161; 0.44081
 441.98;18665.808;  447.874;51020.625; 0.44342
 442.57;18539.771;  436.530;50797.219; 0.44434
 443.16;18428.486;  425.660;50702.578; 0.44603
 443.75;18292.505;  431.481;50788.909; 0.45016
 444.33;18139.647;  435.018;50969.383; 0.45550
 444.92;17944.278;  440.355;50892.685; 0.45975
 445.51;17831.280;  417.614;50850.986; 0.46183
 446.10;17800.868;  410.612;51056.876; 0.46424
 446.69;17743.885;  404.712;51275.545; 0.46744
 447.28;17671.409;  420.929;51457.726; 0.47108
 447.87;17539.406;  412.657;51329.383; 0.47319
 448.45;17434.450;  413.036;51412.748; 0.47657
 449.04;17332.691;  390.874;51445.980; 0.47908
 449.63;17230.345;  386.972;51646.289; 0.48334
 450.22;17096.861;  381.501;51835.467; 0.48830
 450.81;16943.279;  386.090;52100.884; 0.49463
 451.40;16794.869;  391.666;52058.120; 0.49828
 451.98;16705.173;  398.229;52052.065; 0.50073
 452.57;16565.915;  403.856;52211.469; 0.50590
 453.16;16453.468;  401.626;52273.023; 0.50940
 453.75;16343.493;  391.994;52359.708; 0.51293
 454.34;16284.150;  388.814;52215.013; 0.51328
 454.93;16219.517;  395.232;52494.699; 0.51751
 455.51;16019.381;  391.805;52615.216; 0.52397
 456.10;15852.290;  402.670;52907.445; 0.53128
 456.69;15635.564;  396.116;53041.712; 0.53839
 457.28;15564.723;  403.304;53288.203; 0.54259
 457.87;15494.529;  395.902;53216.666; 0.54387
 458.45;15386.253;  396.108;53304.691; 0.54772
 459.04;15390.632;  388.965;53401.373; 0.54824
 459.63;15252.419;  395.666;53676.141; 0.55464
 460.22;15202.751;  396.420;53639.128; 0.55581
 460.80;15117.761;  400.600;53692.823; 0.55884
 461.39;15086.160;  392.483;53895.895; 0.56125
 461.98;15134.075;  393.792;54364.115; 0.56365
 462.57;15115.935;  398.874;54782.941; 0.56765
 463.16;15096.287;  397.668;55197.607; 0.57150
 463.74;15074.558;  387.726;55673.212; 0.57568
 464.33;14966.781;  376.102;56213.777; 0.58285
 464.92;15048.060;  370.427;56547.398; 0.58290
 465.51;14960.713;  357.831;56911.710; 0.58802
 466.09;15022.256;  358.204;57352.888; 0.58958
 466.68;14954.165;  361.518;57898.436; 0.59581
 467.27;15020.369;  372.331;58292.638; 0.59705
 467.86;14974.132;  368.243;58560.733; 0.60034
 468.44;15011.993;  363.094;58919.922; 0.60177
 469.03;14969.559;  361.882;59322.152; 0.60598
 469.62;15006.799;  367.807;59788.037; 0.60842
 470.20;15020.117;  365.300;60231.337; 0.61120
 470.79;15061.975;  374.762;60677.863; 0.61340
 471.38;15070.948;  358.816;61146.166; 0.61614
 471.97;15145.518;  359.020;61564.389; 0.61692
 472.55;15175.814;  350.111;61933.679; 0.61845
 473.14;15233.077;  362.234;62406.602; 0.62037
 473.73;15164.369;  355.473;62971.535; 0.62616
 474.31;15076.640;  347.428;63489.444; 0.63214
 474.90;15036.123;  350.797;63899.238; 0.63622
 475.49;15065.460;  352.737;64160.914; 0.63718
 476.07;15092.854;  357.870;64473.326; 0.63861
 476.66;15215.051;  347.892;64752.829; 0.63669
 477.25;15219.915;  340.581;65000.332; 0.63805
 477.84;15309.115;  352.761;65155.193; 0.63677
 478.42;15210.208;  344.733;65155.945; 0.63947
 479.01;15143.932;  344.681;65156.001; 0.64141
 479.60;15073.115;  330.210;65156.511; 0.64317
 480.18;15038.213;  334.265;65158.257; 0.64430
 480.77;14987.116;  342.135;65159.480; 0.64600
 481.35;14979.008;  347.900;65159.373; 0.64637
 481.94;14878.154;  344.738;65159.188; 0.64930
 482.53;14937.231;  335.059;65159.923; 0.64732
 483.11;14824.359;  332.000;65160.709; 0.65063
 483.70;14782.047;  318.067;65161.719; 0.65158
 484.29;14666.336;  316.585;65163.324; 0.65504
 484.87;14637.234;  306.461;65164.542; 0.65569
 485.46;14589.295;  315.710;65164.272; 0.65737
 486.05;14573.261;  319.958;65162.920; 0.65795
 486.63;14503.591;  321.237;65162.258; 0.66010
 487.22;14467.583;  317.302;65162.909; 0.66112
 487.81;14356.391;  323.288;65164.368; 0.66470
 488.39;14315.499;  331.856;65164.474; 0.66617
 488.98;14214.750;  337.207;65163.733; 0.66944
 489.56;14054.156;  317.228;65164.794; 0.67400
 490.15;13930.750;  310.772;65166.371; 0.67777
 490.74;13777.512;  302.771;65167.454; 0.68249
 491.32;13634.187;  305.937;65168.774; 0.68722
 491.91;13457.154;  316.111;64974.057; 0.69199
 492.49;13256.740;  317.823;64712.314; 0.69695
 493.08;13035.550;  332.939;64167.133; 0.70116
 493.67;12795.300;  325.500;63724.219; 0.70622
 494.25;12712.602;  343.920;63105.848; 0.70537
 494.84;12649.181;  335.724;62474.087; 0.70298
 495.42;12560.520;  338.386;61959.759; 0.70258
 496.01;12375.415;  319.873;61399.648; 0.70471
 496.59;12199.886;  310.443;60754.114; 0.70619
 497.18;12042.588;  311.106;60078.479; 0.70711
 497.77;11852.092;  311.733;59331.632; 0.70878
 498.35;11752.598;  326.966;58841.796; 0.70939
 498.94;11576.014;  324.499;58030.218; 0.71001
 499.52;11485.321;  324.914;57567.186; 0.71004
 500.11;11371.084;  311.275;56906.600; 0.70903
 500.69;11308.727;  304.601;56449.246; 0.70775
 501.28;11250.857;  315.149;55764.708; 0.70505
 501.86;11145.289;  317.653;55155.772; 0.70455
 502.45;11028.237;  338.264;54632.693; 0.70578
 503.03;10885.863;  328.939;54106.656; 0.70706
 503.62;10813.280;  339.385;53665.090; 0.70683
 504.20;10774.164;  326.215;53123.968; 0.70358
 504.79;10760.020;  326.766;52666.148; 0.70041
 505.37;10697.398;  326.582;52358.543; 0.70046
 505.96;10647.280;  332.269;51859.105; 0.69856
 506.55;10629.357;  327.706;51491.158; 0.69605
 507.13;10710.625;  315.837;51254.709; 0.69023
 507.72;10810.654;  312.954;51138.387; 0.68499
 508.30;10933.886;  319.265;50944.634; 0.67846
 508.89;10974.735;  316.460;50626.145; 0.67396
 509.47;11093.986;  308.593;50383.056; 0.66678
 510.05;11194.135;  311.037;50305.214; 0.66217
 510.64;11347.121;  312.992;50205.541; 0.65530
 511.22;11487.060;  326.961;50242.492; 0.65057
 511.81;11683.084;  323.186;50282.527; 0.64324
 512.39;11871.501;  329.747;50266.280; 0.63615
 512.98;12131.008;  310.647;50213.110; 0.62549
 513.56;12341.535;  306.947;50200.284; 0.61761
 514.15;12550.772;  297.484;50225.841; 0.61009
 514.73;12711.602;  293.306;50310.339; 0.60506
 515.32;12970.973;  298.909;50412.714; 0.59711
 515.90;13200.068;  306.909;50529.464; 0.59054
 516.49;13355.216;  321.223;50576.262; 0.58610
 517.07;13444.768;  323.415;50501.804; 0.58254
 517.66;13582.590;  325.663;50468.951; 0.57777
 518.24;13847.748;  330.491;50581.443; 0.57026
 518.82;14076.085;  322.791;50433.118; 0.56152
 519.41;14375.888;  321.449;50483.238; 0.55256
 519.99;14740.281;  304.901;50520.942; 0.54141
 520.58;15134.193;  313.039;50964.514; 0.53371
 521.16;15486.525;  316.114;51139.212; 0.52506
 521.75;15696.461;  315.579;51354.849; 0.52092
 522.33;15920.463;  314.722;51552.832; 0.51631
 522.91;16239.105;  303.280;51724.449; 0.50877
 523.50;16536.084;  304.661;51708.091; 0.50064
 524.08;16899.189;  292.957;51816.521; 0.49173
 524.67;17164.502;  296.699;52029.160; 0.48670
 525.25;17414.983;  294.898;52244.306; 0.48207
 525.83;17704.690;  300.195;52281.679; 0.47519
 526.42;17999.003;  299.604;52255.985; 0.46768
 527.00;18302.671;  297.414;52315.968; 0.46076
 527.59;18570.772;  293.742;52194.390; 0.45327
 528.17;18799.514;  296.702;52169.461; 0.44770
 528.75;19110.504;  314.407;52237.781; 0.44130
 529.34;19307.593;  317.963;52410.206; 0.43826
 529.92;19693.416;  322.096;52599.701; 0.43116
 530.50;19933.809;  308.099;52577.086; 0.42542
 531.09;20277.645;  310.277;52580.588; 0.41793
 531.67;20467.121;  319.699;52493.409; 0.41323
 532.25;20670.006;  331.224;52474.618; 0.40887
 532.84;20800.484;  319.265;52286.406; 0.40437
 533.42;21008.203;  303.579;52069.121; 0.39797
 534.00;21173.359;  296.379;51800.283; 0.39217
 534.59;21270.763;  306.923;51692.027; 0.38937
 535.17;21301.372;  307.396;51484.292; 0.38698
 535.75;21548.448;  311.833;51399.345; 0.38123
 536.34;21821.079;  327.170;51106.314; 0.37337
 536.92;22039.108;  323.362;50970.357; 0.36778
 537.50;22128.457;  320.767;50555.361; 0.36239
 538.09;22179.374;  304.234;50224.272; 0.35832
 538.67;22233.122;  307.957;49849.711; 0.35403
 539.25;22364.309;  292.004;49517.578; 0.34834
 539.84;22531.513;  298.382;49195.084; 0.34228
 540.42;22645.871;  287.620;48747.408; 0.33594
 541.00;22726.072;  304.712;48328.615; 0.33080
 541.59;22791.261;  293.453;47996.146; 0.32640
 542.17;22876.102;  303.713;47681.974; 0.32200
 542.75;22937.225;  301.687;47449.085; 0.31867
 543.33;22950.566;  321.928;47035.436; 0.31478
 543.92;23104.255;  322.791;46647.473; 0.30823
 544.50;23128.455;  319.637;46212.001; 0.30364
 545.08;23247.867;  303.653;45900.067; 0.29826
 545.67;23235.328;  304.594;45544.519; 0.29510
 546.25;23330.740;  306.855;45243.598; 0.29042
 546.83;23419.369;  305.919;44881.223; 0.28523
 547.41;23502.442;  307.185;44485.963; 0.27981
 548.00;23548.560;  304.048;44073.416; 0.27485
 548.58;23587.164;  293.554;43651.340; 0.26983
 549.16;23645.464;  273.252;43462.973; 0.26668
 549.74;23703.164;  276.221;43125.006; 0.26222
 550.33;23700.861;  287.338;42789.017; 0.25894
 550.91;23686.316;  287.502;42328.145; 0.25448
 551.49;23771.885;  275.114;42084.067; 0.25026
 552.07;23907.496;  281.527;41894.675; 0.24584
 552.66;24126.083;  296.715;41696.915; 0.23989
 553.24;24256.639;  301.874;41407.799; 0.23451
 553.82;24384.910;  287.046;41262.389; 0.23054
 554.40;24414.506;  287.502;41018.645; 0.22742
 554.98;24434.042;  286.839;40927.197; 0.22609
 555.57;24537.608;  295.511;40724.442; 0.22212
 556.15;24855.695;  295.794;40729.857; 0.21652
 556.73;25063.371;  289.872;40584.856; 0.21126
 557.31;25302.627;  280.087;40487.094; 0.20597
 557.89;25310.771;  267.680;40402.230; 0.20483
 558.48;25403.357;  270.725;40389.487; 0.20311
 559.06;25518.845;  269.279;40492.969; 0.20223
 559.64;25698.232;  288.172;40421.363; 0.19850
 560.22;25963.357;  308.276;40298.501; 0.19278
 560.80;26092.632;  311.749;40155.433; 0.18906
 561.39;26336.690;  300.174;40123.139; 0.18455
 561.97;26492.361;  304.256;40118.465; 0.18193
 562.55;26739.822;  305.864;40159.584; 0.17831
 563.13;26758.722;  307.652;40244.814; 0.17893
 563.71;26957.895;  295.320;40343.674; 0.17668
 564.29;27092.710;  296.315;40286.513; 0.17388
 564.88;27287.244;  280.495;40218.374; 0.16991
 565.46;27425.993;  277.260;40267.767; 0.16821
 566.04;27642.134;  269.464;40338.574; 0.16549
 566.62;27966.672;  292.162;40520.457; 0.16245
 567.20;28298.892;  292.265;40647.678; 0.15864
 567.78;28488.298;  300.170;40851.754; 0.15794
 568.36;28669.298;  300.837;41002.754; 0.15678
 568.94;28792.741;  296.460;41004.189; 0.15489
 569.53;29008.082;  295.816;41099.192; 0.15263
 570.11;29245.717;  283.902;41113.488; 0.14915
 570.69;29545.483;  278.869;41248.245; 0.14609
 571.27;29668.500;  279.854;41227.262; 0.14405
 571.85;29736.129;  279.584;41295.220; 0.14377
 572.43;29868.143;  299.078;41479.213; 0.14385
 573.01;30055.470;  288.199;41566.526; 0.14198
 573.59;30303.939;  284.931;41522.011; 0.13789
 574.17;30328.215;  270.419;41423.650; 0.13645
 574.76;30555.976;  278.826;41529.098; 0.13431
 575.34;30911.540;  274.920;41725.997; 0.13129
 575.92;31237.068;  271.771;41808.186; 0.12755
 576.50;31552.715;  265.398;41828.507; 0.12334
 577.08;31555.924;  261.206;41866.048; 0.12367
 577.66;31752.585;  250.776;41875.013; 0.12101
 578.24;31773.078;  252.747;41879.155; 0.12078
 578.82;31953.499;  257.942;41897.583; 0.11851
 579.40;32067.792;  266.978;41903.210; 0.11703
 579.98;32291.544;  273.567;41841.961; 0.11337
 580.56;32432.899;  281.852;41853.319; 0.11160
 581.14;32536.746;  291.659;41917.834; 0.11090
 581.72;32667.493;  280.280;42082.244; 0.11082
 582.30;32720.063;  273.151;42074.467; 0.11002
 582.88;32975.215;  274.650;42152.288; 0.10743
 583.46;33097.736;  282.363;42189.821; 0.10621
 584.04;33393.024;  282.956;42171.457; 0.10213
 584.62;33459.045;  265.125;42197.830; 0.10149
 585.21;33612.987;  267.265;42241.428; 0.09994
 585.79;33611.578;  273.754;42392.009; 0.10153
 586.37;33748.878;  277.118;42415.309; 0.10000
 586.95;33891.387;  275.522;42455.787; 0.09857
 587.53;34108.441;  269.979;42469.819; 0.09590
 588.11;34310.870;  278.442;42585.262; 0.09452
 588.69;34370.791;  282.733;42557.865; 0.09348
 589.27;34467.066;  283.424;42506.477; 0.09173
 589.85;34503.866;  276.026;42443.602; 0.09060
 590.43;34657.873;  271.715;42599.939; 0.09025
 591.01;34813.780;  278.076;42722.853; 0.08956
 591.59;34977.536;  288.299;42936.945; 0.08971
 592.16;35032.581;  287.924;42891.657; 0.08856
 592.74;35157.648;  291.617;42886.045; 0.08695
 593.32;35175.571;  293.193;42739.948; 0.08524
 593.90;35344.597;  297.895;42708.966; 0.08283
 594.48;35379.329;  288.777;42603.037; 0.08130
 595.06;35475.753;  285.245;42684.475; 0.08093
 595.64;35529.180;  272.769;42709.242; 0.08050
 596.22;35532.746;  276.890;42757.472; 0.08096
 596.80;35540.235;  268.138;42505.619; 0.07827
 597.38;35596.514;  264.245;42457.558; 0.07707
 597.96;35738.197;  262.869;42299.911; 0.07371
 598.54;35760.022;  268.057;42320.734; 0.07366
 599.12;35747.036;  272.769;42174.074; 0.07231
 599.70;35608.248;  272.156;42133.628; 0.07360
 600.28;35586.826;  269.178;41999.881; 0.07246
 600.86;35579.526;  273.568;41898.236; 0.07150
 601.44;35555.609;  279.130;41816.989; 0.07096
 602.02;35530.604;  273.135;41601.984; 0.06900
 602.59;35654.460;  269.019;41487.164; 0.06626
 603.17;35658.275;  254.435;41427.991; 0.06557
 603.75;35547.302;  264.600;41407.036; 0.06673
 604.33;35315.965;  268.544;41269.041; 0.06813
 604.91;35378.902;  272.574;41056.648; 0.06511
 605.49;35466.995;  271.546;40985.067; 0.06325
 606.07;35438.496;  254.900;40828.877; 0.06191
 606.65;35332.655;  260.422;40696.701; 0.06181
 607.23;35201.412;  264.441;40448.820; 0.06077
 607.80;35072.296;  277.156;40221.379; 0.05994
 608.38;34942.408;  277.256;40025.464; 0.05942
 608.96;34864.621;  285.786;39921.000; 0.05927
 609.54;34661.658;  288.246;39743.725; 0.05988
 610.12;34328.641;  283.928;39528.375; 0.06173
 610.70;34163.563;  273.259;39095.265; 0.05900
 611.28;34014.029;  259.195;38813.390; 0.05774
 611.85;33980.529;  265.841;38433.913; 0.05388
 612.43;33649.896;  260.695;38304.961; 0.05668
 613.01;33462.768;  263.202;38019.161; 0.05585
 613.59;33164.059;  249.299;37795.112; 0.05717
 614.17;33172.687;  240.914;37668.085; 0.05557
 614.75;33015.472;  222.778;37521.205; 0.05591
 615.32;32915.052;  209.277;37291.775; 0.05454
 615.90;32627.506;  219.080;36866.572; 0.05339
 616.48;32319.249;  232.952;36658.988; 0.05509
 617.06;32032.087;  255.157;36308.488; 0.05483
 617.64;31776.741;  246.140;36072.812; 0.05547
 618.22;31774.112;  241.049;35666.522; 0.05055
 618.79;31615.541;  228.178;35515.632; 0.05087
 619.37;31365.924;  227.104;35180.352; 0.05019
 619.95;30943.201;  231.387;34894.600; 0.05256
 620.53;30608.768;  218.869;34491.494; 0.05222
 621.11;30305.887;  206.529;34156.975; 0.05229
 621.68;30208.943;  201.116;33920.700; 0.05065
 622.26;30154.702;  202.843;33803.106; 0.04992
 622.84;30070.974;  212.594;33643.042; 0.04908
 623.42;29906.668;  214.208;33340.072; 0.04752
 623.99;29731.419;  232.130;33128.823; 0.04734
 624.57;29739.134;  239.695;32874.211; 0.04386
 625.15;29513.200;  249.244;32723.283; 0.04520
 625.73;29244.363;  235.066;32483.448; 0.04597
 626.30;28935.710;  228.444;32290.122; 0.04799
 626.88;28776.860;  228.031;32032.596; 0.04690
 627.46;28600.035;  230.061;31766.787; 0.04596
 628.04;28422.120;  242.419;31549.234; 0.04570
 628.61;28329.991;  241.899;31249.103; 0.04294
 629.19;28225.653;  244.829;31015.066; 0.04127
 629.77;28007.017;  231.831;30736.758; 0.04071
 630.35;27725.103;  234.217;30562.869; 0.04266
 630.92;27539.811;  232.092;30375.921; 0.04291
 631.50;27390.686;  220.757;30199.145; 0.04272
 632.08;27227.215;  206.521;29949.680; 0.04169
 632.66;27039.337;  196.801;29744.460; 0.04170
 633.23;26824.967;  216.776;29426.430; 0.04051
 633.81;26458.563;  225.566;29138.020; 0.04224
 634.39;26224.983;  220.298;28844.754; 0.04169
 634.96;25980.357;  221.956;28624.791; 0.04244
 635.54;25982.438;  216.680;28606.896; 0.04213
 636.12;25835.156;  214.735;28334.976; 0.04043
 636.69;25748.781;  204.526;28222.591; 0.04014
 637.27;25482.042;  199.403;27913.834; 0.03988
 637.85;25243.943;  217.219;27696.062; 0.04059
 638.42;25053.202;  206.286;27392.989; 0.03908
 639.00;25005.320;  223.367;27259.457; 0.03781
 639.58;24868.462;  209.789;26981.612; 0.03571
 640.15;24594.667;  222.891;26790.445; 0.03746
 640.73;24280.782;  204.119;26492.226; 0.03816
 641.31;24176.897;  216.013;26471.006; 0.03971
 641.88;24050.346;  210.908;26285.787; 0.03893
 642.46;23994.795;  226.803;26132.901; 0.03741
 643.04;23857.577;  214.697;25934.349; 0.03656
 643.61;23773.359;  223.925;25817.463; 0.03615
 644.19;23600.141;  209.153;25659.577; 0.03665
 644.77;23416.256;  224.048;25468.358; 0.03682
 645.34;23288.705;  211.943;25293.805; 0.03618
 645.92;23166.154;  214.504;25070.586; 0.03462
 646.49;22988.269;  218.399;24938.033; 0.03568
 647.07;22849.718;  220.293;24745.814; 0.03494
 647.65;22729.833;  224.188;24564.928; 0.03404
 648.22;22609.948;  218.082;24391.042; 0.03324
 648.80;22518.064;  227.310;24368.156; 0.03463
 649.37;22432.512;  227.872;24339.937; 0.03579
 649.95;22448.628;  227.433;24242.051; 0.03371
 650.53;22306.743;  209.328;24121.165; 0.03427
 651.10;22186.192;  214.222;24054.279; 0.03544
 651.68;22092.974;  211.450;24020.060; 0.03666
 652.25;22014.756;  221.012;23899.174; 0.03602
 652.83;21933.538;  211.573;23700.955; 0.03397
 653.41;21762.653;  208.468;23524.069; 0.03412
 653.98;21726.435;  212.362;23340.850; 0.03142
 654.56;21611.884;  211.590;23307.630; 0.03312
 655.13;21628.999;  208.818;23285.744; 0.03235
 655.71;21558.448;  207.379;23284.525; 0.03376
 656.28;21435.563;  194.941;23185.639; 0.03438
 656.86;21296.679;  188.169;22962.753; 0.03299
 657.43;21266.127;  190.397;22872.868; 0.03191
 658.01;21312.909;  212.958;22793.315; 0.02945
 658.58;21367.691;  207.519;22876.096; 0.02991
 659.16;21285.807;  211.747;22798.876; 0.03011
 659.74;21298.255;  196.309;22777.324; 0.02942
 660.31;21218.371;  204.203;22714.438; 0.02987
 660.89;21281.819;  198.098;22687.885; 0.02804
 661.46;21196.601;  206.659;22545.999; 0.02706
 662.04;21205.050;  208.554;22516.780; 0.02632
 662.61;21113.165;  207.448;22500.894; 0.02791
 663.19;21176.614;  206.676;22626.342; 0.02903
 663.76;21185.063;  209.571;22600.456; 0.02836
 664.34;21189.178;  211.132;22526.237; 0.02683
 664.91;21228.960;  214.027;22413.684; 0.02382
 665.49;21199.076;  216.922;22441.798; 0.02499
 666.06;21202.191;  213.150;22513.246; 0.02631
 666.64;21207.640;  212.044;22555.693; 0.02703
 667.21;21123.755;  216.606;22500.140; 0.02769
 667.79;21099.204;  204.167;22400.588; 0.02624
 668.36;21020.319;  201.395;22402.702; 0.02792
 668.93;21074.768;  202.290;22421.149; 0.02715
 669.51;21043.550;  198.184;22426.263; 0.02789
 670.08;20940.998;  192.412;22387.044; 0.02926
 670.66;20977.447;  189.307;22273.825; 0.02627
 671.23;21123.896;  213.201;22361.606; 0.02497
 671.81;21228.678;  219.763;22403.720; 0.02364
 672.38;21271.126;  224.324;22501.167; 0.02467
 672.96;21124.575;  213.552;22510.281; 0.02787
 673.53;21112.690;  213.113;22482.395; 0.02757
 674.10;21114.472;  213.008;22524.843; 0.02836
 674.68;21220.254;  228.236;22505.290; 0.02580
 675.25;21153.036;  221.131;22417.404; 0.02547
 675.83;20997.819;  215.692;22370.185; 0.02777
 676.40;20943.934;  203.253;22300.299; 0.02751
 676.98;20973.383;  209.148;22323.413; 0.02736
 677.55;20975.165;  210.043;22281.527; 0.02650
 678.12;20960.280;  223.937;22260.975; 0.02642
 678.70;20911.395;  221.832;22236.089; 0.02695
 679.27;20906.511;  229.060;22163.870; 0.02564
 679.85;20881.959;  216.621;22124.984; 0.02537
 680.42;20869.075;  216.516;22133.431; 0.02581
 680.99;20809.523;  192.744;22099.212; 0.02635
 681.57;20726.639;  198.305;22028.659; 0.02671
 682.14;20789.421;  205.866;21848.773; 0.02180
 682.71;20769.203;  210.761;21795.554; 0.02116
 683.29;20781.318;  200.656;21706.668; 0.01910
 683.86;20561.100;  185.884;21546.116; 0.02050
 684.43;20383.215;  198.112;21362.230; 0.02057
 685.01;20157.997;  197.006;21197.011; 0.02204
 685.58;20116.446;  206.234;21272.458; 0.02451
 686.16;20225.228;  206.462;21269.239; 0.02208
 686.73;20225.344;  215.023;21397.686; 0.02473
 687.30;20223.126;  207.585;21388.467; 0.02458
 687.88;20137.241;  217.479;21321.914; 0.02509
 688.45;20045.023;  210.707;21118.362; 0.02289
 689.02;20012.138;  213.602;21022.142; 0.02161
 689.60;19934.254;  190.497;20889.257; 0.02051
 690.17;19983.369;  199.391;20926.704; 0.02023
 690.74;19841.818;  189.619;20805.485; 0.02079
 691.31;19770.266;  204.181;20824.932; 0.02280
 691.89;19704.382;  191.742;20754.713; 0.02277
 692.46;19636.830;  212.637;20700.494; 0.02315
 693.03;19697.612;  229.198;20611.941; 0.01993
 693.61;19727.728;  234.759;20426.722; 0.01530
 694.18;19705.510;  237.320;20424.503; 0.01575
 694.75;19533.958;  206.882;20414.950; 0.01936
 695.32;19326.074;  208.110;20458.064; 0.02498
 695.90;19273.189;  203.004;20312.512; 0.02305
 696.47;19276.971;  203.899;20210.626; 0.02076
 697.04;19321.420;  214.460;20060.073; 0.01647
 697.62;19313.535;  213.355;20039.187; 0.01619
 698.19;19290.317;  229.250;19951.301; 0.01480
 698.76;19105.099;  211.144;19960.082; 0.01922
 699.33;18993.215;  210.706;19883.196; 0.02011
 699.91;18825.330;  196.600;19795.977; 0.02206
 700.48;18781.445;  206.162;19674.091; 0.02038
 701.05;18677.894;  208.056;19645.538; 0.02218
 701.62;18618.676;  232.951;19536.652; 0.02116
 702.20;18602.791;  235.179;19463.767; 0.01989
 702.77;18527.573;  232.073;19314.881; 0.01830
 703.34;18483.689;  217.301;19303.995; 0.01908
 703.91;18415.471;  214.196;19161.775; 0.01745
 704.48;18383.253;  220.091;19054.223; 0.01575
 705.06;18338.035;  212.652;18964.004; 0.01475
 705.63;18197.150;  221.213;18940.118; 0.01759
 706.20;18190.599;  214.441;18934.565; 0.01761
 706.77;18071.381;  221.336;18864.679; 0.01888
 707.34;18029.163;  215.564;18821.793; 0.01891
 707.92;17912.612;  205.792;18710.907; 0.01915
 708.49;17880.060;  193.353;18575.022; 0.01674
 709.06;17830.842;  193.248;18466.136; 0.01537
 709.63;17782.624;  194.476;18431.916; 0.01574
 710.20;17676.406;  191.037;18446.697; 0.01872
 710.77;17692.188;  187.932;18338.145; 0.01574
 711.35;17700.637;  185.826;18305.592; 0.01475
 711.92;17766.086;  205.721;18271.706; 0.01233
 712.49;17774.868;  207.616;18372.487; 0.01453
 713.06;17836.316;  215.844;18405.934; 0.01382
 713.63;17826.098;  209.405;18498.382; 0.01627
 714.20;17861.547;  212.300;18556.829; 0.01678
 714.78;17857.662;  209.528;18487.277; 0.01522
 715.35;17820.778;  205.756;18407.724; 0.01424
 715.92;17828.226;  207.317;18351.838; 0.01272
 716.49;17750.675;  222.545;18343.285; 0.01444
 717.06;17773.124;  226.106;18273.400; 0.01221
 717.63;17699.906;  217.334;18198.847; 0.01222
 718.20;17634.688;  210.895;18175.294; 0.01327
 718.77;17575.803;  224.790;18170.075; 0.01463
 719.35;17547.252;  226.351;18153.189; 0.01493
 719.92;17516.034;  211.913;18038.303; 0.01291
 720.49;17451.483;  197.474;17879.084; 0.01063
 721.06;17216.931;  177.369;17774.532; 0.01398
 721.63;17160.713;  190.930;17799.979; 0.01606
 722.20;17143.829;  195.825;17861.426; 0.01801
 722.77;17277.611;  203.386;17825.540; 0.01372
 723.34;17287.393;  196.947;17821.321; 0.01336
 723.91;17335.508;  205.509;17813.102; 0.01194
 724.48;17285.290;  222.070;17777.883; 0.01236
 725.05;17287.072;  212.964;17617.997; 0.00834
 725.62;17139.521;  195.192;17490.778; 0.00891
 726.20;17133.303;  186.754;17461.892; 0.00834
 726.77;16973.418;  192.982;17446.339; 0.01207
 727.34;16946.867;  199.210;17412.787; 0.01192
 727.91;16866.316;  209.104;17361.567; 0.01272
 728.48;16898.431;  214.999;17354.015; 0.01170
 729.05;16962.213;  215.560;17353.795; 0.01004
 729.62;17030.328;  192.788;17320.910; 0.00743
 730.19;17055.110;  185.683;17297.024; 0.00618
 730.76;17014.226;  188.578;17324.138; 0.00793
 731.33;16933.674;  211.472;17306.252; 0.00957
 731.90;16830.456;  215.034;17274.033; 0.01144
 732.47;16772.572;  206.261;17242.147; 0.01214
 733.04;16701.020;  191.156;17245.594; 0.01409
 733.61;16635.136;  168.051;17256.042; 0.01607
 734.18;16586.918;  173.945;17191.156; 0.01570
 734.75;16504.033;  184.507;17077.270; 0.01499
 735.32;16524.482;  211.401;16955.384; 0.01132
 735.89;16469.930;  203.963;16851.831; 0.01008
 736.46;16431.046;  212.191;16734.945; 0.00806
 737.03;16366.494;  203.085;16674.393; 0.00820
 737.60;16228.610;  203.647;16580.840; 0.00944
 738.17;16224.392;  173.208;16558.621; 0.00895
 738.74;16146.507;  184.103;16523.735; 0.01014
 739.31;16137.623;  185.331;16430.849; 0.00791
 739.88;15939.405;  195.225;16300.630; 0.00985
 740.45;15887.853;  176.120;16234.411; 0.00948
 741.02;15858.635;  174.348;16293.858; 0.01189
 741.59;15985.084;  171.909;16337.305; 0.00957
 742.15;15939.199;  177.804;16325.753; 0.01052
 742.72;16002.648;  185.365;16376.867; 0.01016
 743.29;15986.763;  187.593;16351.648; 0.00992
 743.86;16055.545;  195.154;16298.095; 0.00659
 744.43;15968.994;  197.049;16220.543; 0.00687
 745.00;15960.776;  201.277;16240.323; 0.00764
 745.57;15855.891;  209.172;16261.771; 0.01112
 746.14;15896.007;  201.733;16198.552; 0.00829
 746.71;15876.455;  208.294;16179.666; 0.00832
 747.28;16000.571;  196.522;16170.446; 0.00464
 747.85;15940.353;  172.417;16124.227; 0.00504
 748.42;15943.468;  173.645;16103.675; 0.00439
 748.98;15846.917;  177.206;16075.455; 0.00629
 749.55;15848.699;  197.767;16011.569; 0.00450
 750.12;15837.481;  197.662;16015.683; 0.00492
 750.69;15843.596;  204.890;15955.131; 0.00309
 751.26;15766.378;  216.118;15910.245; 0.00400
 751.83;15654.827;  206.013;15821.026; 0.00465
 752.40;15570.942;  204.907;15769.807; 0.00558
 752.97;15607.391;  192.802;15780.587; 0.00485
 753.53;15553.173;  195.697;15773.035; 0.00617
 754.10;15558.622;  187.925;15706.815; 0.00417
 754.67;15510.404;  185.486;15666.263; 0.00439
 755.24;15533.852;  192.714;15616.044; 0.00232
 755.81;15490.301;  200.608;15583.491; 0.00264
 756.38;15455.750;  223.503;15510.272; 0.00155
 756.94;15379.198;  215.064;15482.386; 0.00295
 757.51;15211.647;  204.292;15502.833; 0.00835
 758.08;15102.096;  196.520;15545.281; 0.01272
 758.65;15035.545;  213.748;15443.728; 0.01180
 759.22;15044.993;  220.643;15351.176; 0.00888
 759.79;14934.109;  205.538;15180.623; 0.00721
 760.35;14792.557;  191.432;15130.404; 0.00993
 760.92;14644.006;  201.994;14987.518; 0.01021
 761.49;14535.455;  208.555;14849.965; 0.00943
 762.06;14388.903;  211.783;14641.079; 0.00766
 762.63;14292.685;  201.011;14500.527; 0.00636
 763.19;14183.467;  203.239;14469.641; 0.00880
 763.76;14157.249;  215.133;14423.422; 0.00821
 764.33;14035.698;  219.695;14294.202; 0.00805
 764.90;13937.813;  218.589;14107.650; 0.00534
 765.46;13795.595;  197.817;13914.097; 0.00377
 766.03;13649.711;  196.045;13749.878; 0.00322
 766.60;13556.493;  197.940;13624.992; 0.00222
 767.17;13416.608;  205.501;13465.773; 0.00161
 767.73;13305.723;  207.063;13413.220; 0.00355
 768.30;13073.506;  206.624;13205.001; 0.00442
 768.87;12849.288;  215.185;13045.782; 0.00670
 769.44;12716.070;  213.413;12836.229; 0.00415
 770.00;12523.518;  215.975;12686.677; 0.00572
 770.57;12388.634;  216.536;12525.791; 0.00487
 771.14;12108.082;  213.430;12350.238; 0.00875
 771.71;11931.864;  198.325;12122.686; 0.00701
 772.27;11704.646;  206.220;11935.800; 0.00864
 772.84;11592.428;  209.448;11715.914; 0.00469
 773.41;11473.210;  213.676;11595.695; 0.00470
 773.97;11409.659;  205.904;11440.809; 0.00121
 774.54;11271.441;  213.798;11314.923; 0.00170
 775.11;11083.223;  232.360;11227.370; 0.00573
 775.67;10857.338;  228.588;11074.818; 0.00880
 776.24;10730.454;  222.482;10902.265; 0.00704
 776.81;10600.569;  220.377;10665.712; 0.00272
 777.38;10488.018;  208.272;10484.160;-0.00016
 777.94;10342.133;  214.166;10350.941; 0.00038
 778.51;10248.582;  199.728;10214.721;-0.00147
 779.08;10161.364;  210.622;10137.835;-0.00103
 779.64;10042.479;  201.517;10058.283; 0.00070
 780.21; 9870.261;  202.745; 9970.064; 0.00446
 780.78; 9747.377;  211.639; 9870.178; 0.00556
 781.34; 9654.492;  212.534; 9787.625; 0.00608
 781.91; 9607.607;  225.762; 9703.406; 0.00441
 782.47; 9512.723;  227.990; 9633.520; 0.00561
 783.04; 9404.171;  238.551; 9482.634; 0.00370
 783.61; 9364.953;  245.779; 9385.415; 0.00097
 784.17; 9319.402;  246.674; 9320.196; 0.00004
 784.74; 9313.851;  236.569; 9240.310;-0.00353
 785.31; 9216.966;  244.797; 9256.090; 0.00189
 785.87; 9138.748;  248.691; 9137.538;-0.00006
 786.44; 9107.197;  252.252; 9126.319; 0.00094
 787.00; 9061.979;  239.480; 9065.766; 0.00019
 787.57; 9067.761;  222.375; 9005.880;-0.00305
 788.14; 8972.876;  242.936; 8941.661;-0.00156
 788.70; 8918.325;  252.831; 8828.442;-0.00453
 789.27; 8872.774;  261.392; 8880.222; 0.00038
 789.83; 8792.889;  247.620; 8836.003; 0.00219
 790.40; 8766.004;  230.182; 8838.117; 0.00365
 790.96; 8727.120;  235.076; 8799.898; 0.00371
 791.53; 8729.902;  229.304; 8766.679; 0.00187
 792.10; 8740.350;  224.866; 8777.126; 0.00187
 792.66; 8741.132;  219.094; 8720.574;-0.00105
 793.23; 8709.581;  214.988; 8733.688; 0.00123
 793.79; 8652.363;  216.216; 8675.468; 0.00119
 794.36; 8639.812;  210.777; 8660.249; 0.00105
 794.92; 8593.927;  219.339; 8606.363; 0.00064
 795.49; 8598.376;  232.233; 8532.811;-0.00342
 796.05; 8478.824;  243.461; 8505.258; 0.00139
 796.62; 8448.940;  248.023; 8527.372; 0.00413
 797.19; 8367.388;  237.917; 8507.820; 0.00744
 797.75; 8432.504;  226.145; 8453.600; 0.00112
 798.32; 8484.619;  218.373; 8393.714;-0.00480
 798.88; 8508.735;  222.601; 8383.829;-0.00660
 799.45; 8484.517;  224.829; 8436.276;-0.00254
 800.01; 8533.299;  220.391; 8517.723;-0.00081
 800.58; 8674.747;  215.952; 8677.504; 0.00014
 801.14; 8945.529;  222.513; 8916.952;-0.00143
 801.71; 9204.311;  218.074; 9117.399;-0.00422
 802.27; 9497.427;  206.969; 9310.180;-0.00884
 802.84; 9705.875;  188.864; 9480.294;-0.01042
 803.40; 9917.324;  179.758; 9723.075;-0.00875
 803.96;10162.773;  198.986;10006.189;-0.00688
 804.53;10446.221;  210.548;10273.303;-0.00740
 805.09;10828.670;  208.442;10576.417;-0.01044
 805.66;11178.452;  200.670;10926.198;-0.01010
 806.22;11526.901;  172.898;11264.978;-0.01014
 806.79;11795.016;  185.793;11622.426;-0.00650
 807.35;12074.131;  182.354;11886.873;-0.00689
 807.92;12407.247;  214.582;12161.654;-0.00884
 808.48;12765.029;  221.810;12436.768;-0.01152
 809.05;13067.811;  217.705;12708.882;-0.01230
 809.61;13246.593;  213.933;13054.330;-0.00645
 810.17;13482.708;  218.827;13355.110;-0.00420
 810.74;13842.157;  231.055;13671.891;-0.00547
 811.30;14175.939;  226.617;13899.672;-0.00869
 811.87;14474.054;  214.511;14212.453;-0.00804
 812.43;14785.503;  214.406;14571.233;-0.00643
 812.99;15196.285;  216.967;14881.014;-0.00924
 813.56;15609.400;  221.862;15191.462;-0.01196
 814.12;15995.516;  221.090;15523.909;-0.01318
 814.69;16343.964;  216.318;15866.356;-0.01306
 815.25;16615.080;  210.213;16143.804;-0.01266
 815.81;16795.862;  200.774;16302.251;-0.01311
 816.38;17126.310;  196.335;16642.699;-0.01259
 816.94;17424.092;  193.897;16882.479;-0.01387
 817.51;17726.541;  192.791;17283.594;-0.01111
 818.07;17854.990;  201.019;17504.374;-0.00871
 818.63;18111.438;  202.247;17804.155;-0.00752
 819.20;18352.554;  201.808;18033.936;-0.00769
 819.76;18650.669;  209.370;18216.050;-0.01036
 820.32;18897.451;  216.598;18394.831;-0.01185
 820.89;19083.233;  218.159;18583.278;-0.01166
 821.45;19277.015;  193.387;18775.726;-0.01156
 822.01;19320.131;  176.615;18965.173;-0.00813
 822.58;19467.913;  180.843;19065.620;-0.00915
 823.14;19455.361;  194.404;19233.068;-0.00504
 823.70;19565.810;  202.299;19352.182;-0.00482
 824.27;19578.592;  193.194;19462.963;-0.00260
 824.83;19690.707;  215.421;19467.743;-0.00500
 825.39;19688.489;  215.649;19374.524;-0.00706
 825.95;19562.938;  221.211;19316.972;-0.00556
 826.52;19412.387;  191.105;19274.752;-0.00312
 827.08;19248.835;  189.000;19152.200;-0.00221
 827.64;19118.284;  175.895;18949.314;-0.00389
 828.21;18898.399;  175.123;18660.095;-0.00556
 828.77;18673.181;  181.351;18397.542;-0.00652
 829.33;18253.964;  183.579;18029.323;-0.00543
 829.89;17934.412;  181.807;17638.104;-0.00731
 830.46;17519.861;  185.701;17297.218;-0.00561
 831.02;17300.643;  190.596;16895.332;-0.01041
 831.58;16882.758;  201.157;16540.779;-0.00900
 832.15;16383.207;  185.052;16128.893;-0.00687
 832.71;15898.989;  188.280;15811.341;-0.00243
 833.27;15380.438;  178.841;15353.455;-0.00077
 833.83;14947.553;  169.736;14940.569;-0.00021
 834.39;14446.002;  164.297;14394.016;-0.00158
 834.96;13991.450;  162.192;13925.464;-0.00208
 835.52;13624.566;  187.086;13474.578;-0.00487
 836.08;13215.348;  188.981;13047.025;-0.00565
 836.64;12821.130;  194.876;12619.473;-0.00699
 837.21;12360.578;  198.770;12148.920;-0.00762
 837.77;11958.027;  198.332;11759.367;-0.00740
 838.33;11515.809;  206.893;11447.148;-0.00264
 838.89;11063.924;  203.121;11001.596;-0.00250
 839.45;10575.373;  205.349;10589.710; 0.00060
 840.02;10169.155;  209.910;10134.490;-0.00151
 840.58; 9763.937;  201.805; 9836.938; 0.00330
 841.14; 9481.053;  224.699; 9457.052;-0.00113
 841.70; 9152.501;  220.594; 9049.833;-0.00502
 842.26; 8807.617;  218.155; 8613.280;-0.00994
 842.82; 8399.732;  209.050; 8233.061;-0.00893
 843.39; 7938.514;  200.278; 7802.175;-0.00772
 843.95; 7549.629;  213.839; 7446.956;-0.00612
 844.51; 7174.745;  213.734; 7076.737;-0.00616
 845.07; 6854.527;  223.295; 6751.184;-0.00682
 845.63; 6617.975;  228.523; 6447.965;-0.01171
 846.19; 6365.424;  213.418; 6205.745;-0.01142
 846.75; 6180.873;  212.646; 6042.860;-0.01016
 847.32; 5955.655;  191.874; 5828.307;-0.00970
 847.88; 5746.437;  198.435; 5647.088;-0.00785
 848.44; 5513.552;  182.996; 5418.202;-0.00784
 849.00; 5329.334;  188.224; 5206.649;-0.01049
 849.56; 5204.450;  183.119; 5035.763;-0.01484
 850.12; 5135.232;  176.680; 4913.211;-0.01989
 850.68; 5056.014;  181.908; 4877.325;-0.01622
 851.24; 4978.129;  184.136; 4806.439;-0.01584
 851.80; 4910.911;  199.364; 4790.220;-0.01127
 852.37; 4877.026;  196.592; 4731.334;-0.01373
 852.93; 4885.142;  204.820; 4729.448;-0.01469
 853.49; 4834.257;  212.715; 4650.895;-0.01758
 854.05; 4796.706;  223.943; 4597.676;-0.01933
 854.61; 4677.154;  224.171; 4520.790;-0.01552
 855.17; 4648.936;  234.066; 4501.904;-0.01471
 855.73; 4588.385;  222.627; 4484.352;-0.01047
 856.29; 4609.167;  213.855; 4475.132;-0.01345
 856.85; 4664.949;  192.749; 4517.913;-0.01452
 857.41; 4716.731;  203.644; 4600.027;-0.01138
 857.97; 4820.513;  205.205; 4760.141;-0.00572
 858.53; 4968.295;  207.433; 4902.255;-0.00607
 859.09; 5202.744;  192.328; 5028.370;-0.01538
 859.65; 5411.526;  184.889; 5166.484;-0.02085
 860.21; 5645.641;  182.451; 5403.598;-0.01968
 860.77; 5900.757;  179.679; 5685.045;-0.01669
 861.33; 6256.539;  189.573; 6014.826;-0.01766
 861.89; 6573.654;  205.135; 6331.273;-0.01685
 862.45; 6946.103;  215.363; 6656.387;-0.01911
 863.01; 7323.218;  205.924; 6960.168;-0.02274
 863.57; 7725.667;  191.152; 7240.949;-0.02888
 864.13; 8022.449;  180.713; 7598.730;-0.02412
 864.69; 8263.897;  188.608; 7928.510;-0.01842
 865.25; 8540.679;  208.502; 8274.958;-0.01408
 865.81; 8895.795;  215.730; 8598.739;-0.01512
 866.37; 9266.243;  213.625; 8883.853;-0.01874
 866.93; 9621.359;  200.853; 9198.967;-0.01992
 867.49; 9992.807;  216.081; 9536.081;-0.02078
 868.05;10269.256;  210.642; 9849.195;-0.01853
 868.61;10584.371;  206.870;10116.309;-0.02004
 869.17;10859.820;  185.765;10306.090;-0.02313
 869.73;11190.936;  202.660;10652.537;-0.02182
 870.29;11522.718;  209.554;10985.985;-0.02111
 870.85;11820.833;  212.115;11316.099;-0.01931
 871.41;12198.948;  192.010;11700.213;-0.01842
 871.97;12519.397;  179.571;12032.994;-0.01747
 872.53;12891.846;  184.799;12414.108;-0.01664
 873.09;13278.628;  192.361;12748.222;-0.01797
 873.65;13709.743;  202.922;13125.336;-0.01921
 874.20;14075.525;  204.150;13530.783;-0.01740
 874.76;14501.525;  206.483;13844.450;-0.02044
 875.32;14906.192;  199.150;14344.450;-0.01691
 875.88;15368.192;  204.817;14722.117;-0.01891
 876.44;15734.525;  218.150;15059.450;-0.01932
 877.00;16086.192;  218.150;15358.117;-0.02040
 877.56;16407.858;  215.483;15696.450;-0.01951
 878.12;16659.525;  204.483;16104.450;-0.01490
 878.68;16903.192;  211.817;16344.450;-0.01479
 879.23;17146.858;  207.150;16637.783;-0.01325
 879.79;17407.192;  220.483;16875.783;-0.01364
 880.35;17649.858;  205.150;17127.117;-0.01321
 880.91;17899.858;  192.150;17367.783;-0.01325
 881.47;18229.192;  175.817;17611.783;-0.01511
 882.03;18532.525;  191.483;17929.783;-0.01451
 882.59;18769.858;  204.150;18199.450;-0.01355
 883.14;18920.525;  217.150;18423.117;-0.01171
 883.70;19071.525;  220.150;18492.117;-0.01356
 884.26;19186.192;  217.483;18606.117;-0.01349
 884.82;19255.858;  200.150;18627.783;-0.01456
 885.38;19272.525;  184.483;18693.783;-0.01337
 885.94;19277.192;  186.817;18692.783;-0.01350
 886.49;19289.858;  200.150;18759.783;-0.01223
 887.05;19282.525;  192.817;18819.450;-0.01066
 887.61;19250.858;  182.817;18766.450;-0.01118
 888.17;19157.858;  175.817;18655.450;-0.01165
 888.73;18942.858;  189.483;18492.450;-0.01056
 889.28;18759.858;  190.150;18251.117;-0.01206
 889.84;18592.192;  191.817;18020.450;-0.01371
 890.40;18510.192;  194.817;17792.450;-0.01736
 890.96;18372.192;  199.483;17628.450;-0.01815
 891.51;18128.192;  189.483;17470.117;-0.01623
 892.07;17886.858;  183.817;17244.117;-0.01606
 892.63;17639.192;  190.483;17036.783;-0.01526
 893.19;17496.192;  200.817;16880.117;-0.01575
 893.74;17331.192;  215.150;16772.783;-0.01441
 894.30;17131.858;  206.150;16671.450;-0.01198
 894.86;17025.858;  185.150;16510.450;-0.01350
 895.42;16996.525;  176.483;16397.450;-0.01575
 895.97;16994.192;  175.150;16362.450;-0.01663
 896.53;16866.192;  203.817;16299.450;-0.01503
 897.09;16781.192;  212.817;16258.117;-0.01393
 897.65;16676.858;  225.483;16079.783;-0.01606
 898.20;16609.525;  228.483;15994.117;-0.01663
 898.76;16555.192;  215.150;15888.117;-0.01810
 899.32;16528.525;  215.483;15824.450;-0.01916
 899.87;16474.192;  206.483;15765.117;-0.01935
 900.43;16262.525;  206.150;15631.783;-0.01740
 900.99;16048.192;  194.483;15508.450;-0.01504
 901.54;15842.858;  181.150;15319.450;-0.01476
 902.10;15675.525;  193.150;15133.117;-0.01549
 902.66;15500.525;  208.483;14918.117;-0.01686
 903.21;15333.525;  221.817;14754.117;-0.01698
 903.77;15147.858;  229.483;14588.450;-0.01660
 904.33;15053.858;  209.483;14443.783;-0.01823
 904.88;14910.192;  198.150;14329.783;-0.01748
 905.44;14801.192;  177.150;14293.450;-0.01535
 906.00;14724.858;  191.150;14324.117;-0.01214
 906.55;14707.192;  207.483;14294.117;-0.01255
 907.11;14638.192;  214.150;14239.117;-0.01219
 907.67;14434.525;  205.817;14016.117;-0.01296
 908.22;14232.858;  196.150;13855.783;-0.01183
 908.78;14140.192;  187.817;13715.783;-0.01342
 909.33;14044.525;  195.483;13616.783;-0.01363
 909.89;14003.192;  192.150;13488.783;-0.01648
 910.45;13838.525;  201.150;13406.783;-0.01397
 911.00;13761.858;  191.483;13362.117;-0.01299
 911.56;13657.525;  203.817;13272.117;-0.01262
 912.12;13613.192;  208.483;13101.117;-0.01692
 912.67;13492.525;  221.483;12951.117;-0.01809
 913.23;13339.525;  194.150;12807.450;-0.01794
 913.78;13187.192;  178.483;12651.783;-0.01825
 914.34;13070.192;  201.483;12642.117;-0.01469
 914.89;13019.525;  216.483;12543.117;-0.01647
 915.45;12985.192;  227.150;12558.117;-0.01479
 916.01;12902.192;  195.483;12386.117;-0.01801
 916.56;12787.858;  201.483;12282.450;-0.01780
 917.12;12598.525;  196.817;12063.117;-0.01917
 917.67;12537.192;  195.483;11981.117;-0.02002
 918.23;12366.858;  182.817;11944.450;-0.01532
 918.78;12236.192;  186.483;11927.117;-0.01129
 919.34;12032.858;  188.817;11843.783;-0.00699
 919.89;11896.858;  199.150;11694.117;-0.00759
 920.45;11860.192;  185.817;11531.783;-0.01239
 921.00;11762.525;  168.817;11330.783;-0.01648
 921.56;11652.525;  176.150;11296.783;-0.01368
 922.11;11480.858;  175.150;11154.450;-0.01272
 922.67;11347.525;  202.483;11048.450;-0.01181
 923.22;11201.192;  191.150;10815.450;-0.01549
 923.78;11024.192;  202.817;10632.117;-0.01603
 924.33;10856.525;  195.817;10497.117;-0.01489
 924.89;10689.858;  196.483;10361.117;-0.01382
 925.44;10529.858;  204.817;10248.117;-0.01202
 926.00;10383.858;  201.150;10018.783;-0.01586
 926.55;10286.858;  205.150; 9867.117;-0.01847
 927.11;10226.525;  188.150; 9720.450;-0.02247
 927.66;10121.192;  177.817; 9717.117;-0.01802
 928.22;10026.525;  174.483; 9670.783;-0.01597
 928.77; 9942.192;  190.150; 9636.117;-0.01385
 929.33; 9927.192;  204.150; 9587.783;-0.01543
 929.88; 9863.525;  205.150; 9516.450;-0.01589
 930.43; 9790.858;  182.483; 9493.450;-0.01366
 930.99; 9801.525;  174.817; 9470.117;-0.01521
 931.54; 9808.858;  167.150; 9456.783;-0.01616
 932.10; 9925.858;  190.150; 9473.117;-0.02068
 932.65; 9893.192;  197.150; 9480.117;-0.01891
 933.21; 9928.858;  198.483; 9496.450;-0.01974
 933.76; 9834.858;  187.483; 9472.117;-0.01664
 934.31; 9807.192;  183.150; 9454.117;-0.01623
 934.87; 9797.525;  190.150; 9433.783;-0.01676
 935.42; 9819.192;  199.483; 9431.450;-0.01787
 935.98; 9871.858;  195.483; 9388.450;-0.02226
 936.53; 9874.858;  193.817; 9335.450;-0.02490
 937.08; 9789.858;  191.150; 9347.783;-0.02048
 937.64; 9744.192;  197.817; 9356.783;-0.01799
 938.19; 9696.525;  196.483; 9425.117;-0.01259
 938.74; 9751.525;  199.817; 9340.117;-0.01912
 939.30; 9743.858;  187.150; 9339.783;-0.01876
 939.85; 9661.858;  186.483; 9209.783;-0.02123
 940.40; 9629.525;  173.817; 9251.783;-0.01771
 940.96; 9584.858;  187.150; 9238.450;-0.01631
 941.51; 9611.858;  189.483; 9244.783;-0.01726
 942.06; 9512.858;  197.150; 9160.450;-0.01675
 942.62; 9424.525;  184.817; 9036.783;-0.01862
 943.17; 9336.192;  195.150; 8966.450;-0.01793
 943.72; 9239.858;  180.483; 8903.117;-0.01645
 944.28; 9198.192;  199.483; 8795.117;-0.01990
 944.83; 9150.858;  184.150; 8766.783;-0.01901
 945.38; 9155.192;  194.483; 8735.117;-0.02085
 945.94; 9150.192;  186.483; 8804.450;-0.01708
 946.49; 9056.525;  205.150; 8772.783;-0.01415
 947.04; 9010.525;  208.817; 8738.117;-0.01365
 947.60; 8886.192;  215.150; 8638.117;-0.01261
 948.15; 8919.858;  203.483; 8519.117;-0.02044
 948.70; 8857.192;  212.817; 8413.783;-0.02287
 949.25; 8792.525;  206.150; 8325.117;-0.02431
 949.81; 8632.192;  208.817; 8271.117;-0.01903
 950.36; 8446.192;  198.483; 8157.117;-0.01549
 950.91; 8293.525;  207.150; 8037.783;-0.01396
 951.46; 8128.192;  203.817; 7873.117;-0.01421
 952.02; 8009.192;  207.150; 7734.117;-0.01559
 952.57; 7903.858;  207.150; 7606.450;-0.01711
 953.12; 7813.525;  218.483; 7526.117;-0.01675
 953.67; 7731.858;  218.150; 7443.783;-0.01698
 954.23; 7576.525;  215.817; 7359.450;-0.01300
 954.78; 7468.192;  208.150; 7234.450;-0.01421
 955.33; 7321.525;  218.150; 7119.783;-0.01251
 955.88; 7206.192;  217.150; 6980.117;-0.01428
 956.44; 7090.858;  230.483; 6838.450;-0.01628
 956.99; 7048.525;  228.817; 6737.117;-0.02030
 957.54; 7048.525;  223.817; 6672.783;-0.02459
 958.09; 6991.192;  222.150; 6636.783;-0.02336
 958.64; 6931.525;  206.817; 6607.450;-0.02145
 959.20; 6870.525;  203.483; 6532.450;-0.02260
 959.75; 6826.525;  199.817; 6496.450;-0.02219
 960.30; 6769.192;  218.150; 6441.783;-0.02227
 960.85; 6725.858;  225.150; 6424.450;-0.02062
 961.40; 6737.525;  228.817; 6381.117;-0.02446
 961.95; 6750.858;  231.817; 6360.783;-0.02680
 962.51; 6720.858;  239.483; 6360.117;-0.02487
 963.06; 6686.192;  242.817; 6380.117;-0.02114
 963.61; 6649.192;  234.150; 6314.783;-0.02325
 964.16; 6627.525;  235.150; 6258.450;-0.02583
 964.71; 6620.192;  222.483; 6212.117;-0.02862
 965.26; 6606.525;  213.150; 6253.117;-0.02470
 965.81; 6615.192;  210.817; 6289.117;-0.02269
 966.36; 6582.525;  208.483; 6323.783;-0.01800
 966.92; 6602.525;  216.150; 6305.117;-0.02071
 967.47; 6636.192;  218.483; 6338.117;-0.02065
 968.02; 6646.858;  232.483; 6354.117;-0.02029
 968.57; 6633.192;  234.817; 6375.450;-0.01786
 969.12; 6660.858;  219.817; 6368.783;-0.02015
 969.67; 6744.192;  204.483; 6420.783;-0.02203
 970.22; 6830.192;  194.150; 6469.783;-0.02425
 970.77; 6914.858;  199.817; 6539.117;-0.02501
 971.32; 7014.525;  197.483; 6593.117;-0.02771
 971.87; 7103.858;  198.817; 6693.117;-0.02663
 972.42; 7175.525;  215.150; 6793.117;-0.02454
 972.98; 7219.192;  220.817; 6908.783;-0.01970
 973.53; 7266.192;  231.483; 6996.117;-0.01700
 974.08; 7348.858;  215.483; 7040.450;-0.01919
 974.63; 7412.858;  223.483; 7078.450;-0.02069
 975.18; 7553.858;  218.483; 7103.117;-0.02754
 975.73; 7593.525;  224.817; 7157.450;-0.02649
 976.28; 7627.192;  221.483; 7219.117;-0.02462
 976.83; 7605.192;  221.483; 7315.450;-0.01739
 977.38; 7643.858;  219.483; 7373.783;-0.01609
 977.93; 7664.858;  222.150; 7387.450;-0.01650
 978.48; 7731.525;  228.483; 7365.783;-0.02170
 979.03; 7737.192;  234.817; 7358.117;-0.02252
 979.58; 7792.192;  221.483; 7329.117;-0.02741
 980.13; 7732.858;  207.150; 7367.783;-0.02160
 980.68; 7653.192;  186.483; 7310.450;-0.02041
 981.23; 7571.858;  185.817; 7278.117;-0.01762
 981.78; 7539.192;  207.150; 7207.450;-0.02011
 982.33; 7519.525;  219.150; 7257.117;-0.01590
 982.88; 7467.192;  232.483; 7211.783;-0.01561
 983.43; 7403.525;  218.150; 7145.783;-0.01586
 983.98; 7366.858;  215.150; 6984.117;-0.02389
 984.53; 7321.192;  203.817; 6873.450;-0.02822
 985.08; 7279.192;  209.817; 6835.783;-0.02813
 985.63; 7187.525;  211.150; 6787.117;-0.02567
 986.18; 7113.858;  218.817; 6756.783;-0.02309
 986.73; 6998.858;  218.483; 6610.450;-0.02562
 987.27; 6954.858;  227.483; 6521.117;-0.02894
 987.82; 6866.525;  238.483; 6431.783;-0.02946
 988.37; 6806.858;  243.150; 6400.783;-0.02774
 988.92; 6697.858;  234.150; 6351.117;-0.02395
 989.47; 6622.192;  214.483; 6285.117;-0.02347
 990.02; 6544.858;  208.483; 6199.117;-0.02437
 990.57; 6458.858;  208.150; 6083.117;-0.02692
 991.12; 6355.858;  215.150; 6044.450;-0.02260
 991.67; 6274.525;  213.817; 5969.117;-0.02246
 992.22; 6195.192;  200.483; 5915.450;-0.02075
 992.77; 6118.525;  200.150; 5802.450;-0.02384
 993.31; 6004.858;  204.817; 5735.783;-0.02063
 993.86; 5931.525;  230.483; 5683.783;-0.01929
 994.41; 5866.858;  235.150; 5580.117;-0.02270
 994.96; 5761.858;  226.483; 5473.117;-0.02327
 995.51; 5634.858;  218.817; 5377.783;-0.02112
 996.06; 5490.525;  208.483; 5293.783;-0.01649
 996.61; 5431.192;  222.483; 5201.783;-0.01956
 997.15; 5320.858;  236.150; 5083.450;-0.02077
 997.70; 5209.858;  241.150; 4965.117;-0.02194
 998.25; 5079.858;  247.483; 4873.450;-0.01896
 998.80; 4955.525;  248.483; 4740.117;-0.02034
 999.35; 4844.525;  249.483; 4623.450;-0.02141
 999.90; 4699.858;  236.150; 4455.117;-0.02449
1000.44; 4591.858;  224.483; 4340.450;-0.02575
1000.99; 4446.192;  232.483; 4190.783;-0.02716
1001.54; 4314.192;  237.150; 4067.450;-0.02711
1002.09; 4136.525;  231.817; 3939.117;-0.02253
1002.64; 4034.858;  238.483; 3855.450;-0.02102
1003.18; 3960.192;  240.483; 3766.783;-0.02319
1003.73; 3904.192;  238.483; 3661.450;-0.02976
1004.28; 3794.858;  226.817; 3584.450;-0.02640
1004.83; 3670.525;  209.483; 3488.117;-0.02351
1005.38; 3561.525;  210.150; 3420.783;-0.01863
1005.92; 3478.192;  219.150; 3321.783;-0.02136
1006.47; 3387.525;  236.817; 3231.783;-0.02202
1007.02; 3295.525;  235.483; 3140.117;-0.02264
1007.57; 3229.858;  222.817; 3087.450;-0.02107
1008.11; 3189.525;  211.817; 3028.450;-0.02415
1008.66; 3171.192;  205.150; 2973.450;-0.02996
1009.21; 3093.858;  192.483; 2907.783;-0.02879
1009.75; 2990.525;  177.817; 2862.117;-0.02029
1010.30; 2894.525;  170.150; 2793.117;-0.01647
1010.85; 2814.525;  176.817; 2712.783;-0.01708
1011.40; 2767.192;  204.150; 2628.450;-0.02417
1011.94; 2713.858;  221.817; 2545.783;-0.03033
1012.49; 2639.525;  216.483; 2464.450;-0.03257
1013.04; 2542.858;  194.150; 2362.117;-0.03478
1013.58; 2452.858;  184.150; 2325.117;-0.02517
1014.13; 2374.525;  188.483; 2268.117;-0.02167
1014.68; 2323.192;  196.483; 2233.450;-0.01872
1015.23; 2248.525;  203.150; 2181.450;-0.01448
1015.77; 2202.858;  199.817; 2113.117;-0.01991
1016.32; 2145.192;  204.817; 2072.450;-0.01659
1016.87; 2104.192;  209.483; 2012.783;-0.02147
1017.41; 2068.525;  206.817; 1977.450;-0.02178
1017.96; 2035.858;  194.817; 1953.450;-0.01989
1018.50; 2006.192;  186.483; 1926.450;-0.01946
1019.05; 1959.192;  188.483; 1903.450;-0.01389
1019.60; 1888.858;  182.817; 1815.783;-0.01901
1020.14; 1835.192;  196.150; 1752.783;-0.02240
1020.69; 1780.192;  196.150; 1698.117;-0.02311
1021.24; 1761.858;  209.483; 1650.450;-0.03234
1021.78; 1712.192;  188.483; 1620.450;-0.02697
1022.33; 1667.192;  190.150; 1592.450;-0.02255
1022.87; 1600.525;  182.817; 1587.783;-0.00392
1023.42; 1575.192;  198.150; 1567.117;-0.00255
1023.97; 1532.525;  200.150; 1516.117;-0.00538
1024.51; 1524.192;  212.150; 1465.117;-0.02001
1025.06; 1453.525;  200.483; 1401.117;-0.01856
1025.60; 1426.192;  198.817; 1340.783;-0.03132
1026.15; 1385.525;  181.150; 1307.783;-0.02898
1026.70; 1366.858;  185.483; 1284.783;-0.03127
1027.24; 1360.858;  195.483; 1279.783;-0.03132
1027.79; 1315.525;  200.483; 1270.450;-0.01792
1028.33; 1309.858;  197.483; 1252.450;-0.02301
1028.88; 1264.858;  188.817; 1215.450;-0.02041
1029.42; 1247.525;  208.150; 1198.450;-0.02101
1029.97; 1195.858;  197.817; 1156.450;-0.01750
1030.51; 1165.192;  190.150; 1127.117;-0.01730
1031.06; 1150.525;  182.817; 1088.783;-0.02863
1031.61; 1155.525;  192.483; 1063.117;-0.04381
1032.15; 1148.192;  210.150; 1050.450;-0.04779
1032.70; 1108.858;  202.817; 1024.117;-0.04265
1033.24; 1060.192;  206.483; 1018.117;-0.02195
1033.79; 1055.525;  200.817; 1020.450;-0.01820
1034.33; 1036.858;  199.817; 1016.450;-0.01072
1034.88; 1041.192;  201.817; 1008.783;-0.01710
1035.42; 1020.858;  202.817;  979.450;-0.02256
1035.97; 1025.192;  204.483;  950.450;-0.04147
1036.51;  998.192;  206.483;  931.450;-0.03825
1037.06;  979.525;  200.817;  944.117;-0.02021
1037.60;  970.858;  207.150;  948.783;-0.01274
1038.14;  962.525;  204.150;  928.783;-0.01977
1038.69;  951.858;  222.150;  927.783;-0.01457
1039.23;  937.192;  234.483;  935.783;-0.00087
1039.78;  945.858;  235.150;  948.783; 0.00178
1040.32;  948.192;  224.483;  915.783;-0.01990
1040.87;  941.192;  208.483;  887.117;-0.03330
1041.41;  937.192;  198.150;  864.117;-0.04522
1041.96;  941.192;  200.817;  882.783;-0.03569
1042.50;  952.858;  197.817;  893.117;-0.03580
1043.04;  946.192;  213.817;  899.117;-0.02885
1043.59;  930.192;  217.150;  867.450;-0.04000
1044.13;  894.858;  212.483;  869.450;-0.01648
1044.68;  899.525;  205.817;  862.117;-0.02407
1045.22;  889.858;  199.150;  873.783;-0.01023
1045.76;  883.192;  201.817;  869.450;-0.00885
1046.31;  865.192;  193.483;  861.783;-0.00221
1046.85;  856.192;  200.483;  842.117;-0.00942
1047.40;  870.525;  202.483;  813.783;-0.03855
1047.94;  859.525;  215.150;  808.783;-0.03562
1048.48;  840.858;  211.150;  810.117;-0.02174
1049.03;  824.525;  214.483;  793.450;-0.02271
1049.57;  826.858;  229.150;  787.117;-0.02988
1050.11;  831.525;  222.817;  774.117;-0.04302
1050.66;  827.525;  218.483;  779.117;-0.03597
1051.20;  814.858;  206.483;  794.450;-0.01482
1051.74;  801.858;  200.817;  788.117;-0.01004
1052.29;  781.525;  200.150;  780.783;-0.00055
1052.83;  786.525;  199.150;  748.117;-0.02937
1053.37;  799.192;  224.817;  744.783;-0.04322
1053.92;  815.525;  234.150;  739.783;-0.06062
1054.46;  780.192;  236.483;  734.117;-0.03846
1055.00;  770.858;  231.483;  739.117;-0.02634
1055.55;  762.858;  230.817;  738.117;-0.02068
1056.09;  776.525;  223.817;  747.783;-0.02319
1056.63;  746.525;  215.817;  711.783;-0.02940
1057.17;  748.192;  216.483;  709.117;-0.03315
1057.72;  747.525;  225.150;  697.450;-0.04376
1058.26;  758.192;  223.483;  705.783;-0.04480
1058.80;  738.192;  229.817;  700.450;-0.03350
1059.35;  709.858;  230.483;  686.450;-0.02174
1059.89;  691.525;  230.150;  672.450;-0.01834
1060.43;  683.192;  227.817;  654.783;-0.02798
1060.97;  675.858;  223.817;  667.117;-0.00848
1061.52;  677.858;  231.150;  682.450; 0.00444
1062.06;  677.192;  231.483;  671.450;-0.00563
1062.60;  682.192;  236.483;  658.450;-0.02377
1063.14;  661.192;  232.483;  640.783;-0.02118
1063.69;  628.192;  216.483;  640.117; 0.01240
1064.23;  607.858;  208.817;  619.783; 0.01279
1064.77;  606.858;  200.483;  598.450;-0.00908
1065.31;  622.525;  201.817;  577.450;-0.04922
1065.85;  613.192;  206.483;  567.117;-0.05222
1066.40;  614.192;  205.150;  579.450;-0.03855
1066.94;  596.192;  217.817;  579.117;-0.02005
1067.48;  581.858;  209.150;  587.783; 0.00685
1068.02;  583.525;  233.817;  562.450;-0.02699
1068.56;  576.192;  216.817;  564.783;-0.01401
1069.10;  583.192;  212.817;  549.783;-0.04105
1069.65;  558.858;  195.817;  566.450; 0.00899
1070.19;  547.525;  208.817;  566.783; 0.02402
1070.73;  564.525;  223.817;  582.783; 0.02267
1071.27;  559.525;  215.817;  567.117; 0.00949
1071.81;  575.858;  207.150;  562.117;-0.01650
1072.35;  574.858;  201.817;  549.117;-0.03105
1072.90;  569.192;  197.150;  546.783;-0.02698
1073.44;  558.858;  202.817;  540.117;-0.02348
1073.98;  543.192;  206.150;  531.450;-0.01540
1074.52;  556.192;  224.483;  538.783;-0.02341
1075.06;  541.858;  218.483;  542.450; 0.00079
1075.60;  522.858;  207.483;  531.450; 0.01167
1076.14;  506.192;  204.817;  514.117; 0.01127
1076.68;  514.858;  207.150;  504.450;-0.01494
1077.22;  525.525;  225.817;  504.783;-0.03115
1077.76;  531.192;  214.817;  498.117;-0.04796
1078.31;  531.192;  229.817;  499.783;-0.04780
1078.85;  518.192;  226.483;  517.117;-0.00160
1079.39;  505.858;  243.817;  525.450; 0.03131
1079.93;  504.525;  237.817;  507.783; 0.00527
1080.47;  504.525;  227.483;  476.450;-0.04640
1081.01;  514.525;  216.150;  474.783;-0.06208
1081.55;  510.525;  208.483;  488.783;-0.03244
1082.09;  518.525;  205.817;  488.783;-0.04340
1082.63;  518.525;  210.150;  496.450;-0.03226
1083.17;  534.525;  221.150;  500.783;-0.04948
1083.71;  530.192;  228.817;  501.450;-0.04353
1084.25;  515.525;  224.483;  471.117;-0.07190
1084.79;  479.525;  214.483;  446.450;-0.05789
1085.33;  473.525;  202.817;  450.783;-0.03811
1085.87;  475.525;  199.483;  468.450;-0.01128
1086.41;  493.525;  214.483;  471.450;-0.03579
1086.95;  480.858;  222.150;  467.117;-0.02370
1087.49;  472.858;  225.817;  454.783;-0.03300
1088.03;  463.192;  216.817;  454.117;-0.01630
1088.57;  471.525;  219.817;  450.783;-0.03735
1089.11;  473.192;  222.150;  448.117;-0.04570
1089.65;  481.525;  233.150;  458.783;-0.04170
1090.19;  478.192;  238.483;  468.117;-0.01865
1090.73;  473.858;  240.483;  471.783;-0.00388
1091.27;  473.858;  238.817;  466.117;-0.01455
1091.81;  477.858;  238.483;  458.117;-0.03738
1092.35;  494.192;  247.483;  461.450;-0.06184
1092.89;  480.525;  232.150;  457.450;-0.04235
1093.43;  481.858;  223.817;  445.783;-0.06540
1093.97;  448.525;  210.150;  441.117;-0.01371
1094.51;  443.858;  208.483;  440.450;-0.00633
1095.04;  441.192;  218.483;  442.783; 0.00309
1095.58;  470.192;  238.817;  436.783;-0.06772
1096.12;  479.525;  242.817;  428.783;-0.10478
1096.66;  466.192;  239.817;  430.450;-0.07463
1097.20;  461.858;  235.817;  449.450;-0.02452
1097.74;  461.192;  246.817;  456.783;-0.00902
1098.28;  460.525;  235.817;  457.117;-0.00664
1098.82;  452.525;  230.483;  453.117; 0.00116
1099.36;  443.858;  228.150;  446.450; 0.00519
1099.89;  456.858;  230.150;  447.450;-0.01841

