
Integration time [ms]:   0.300
Averaging Nr. [scans]: 1
Smoothing Nr. [pixels]: 1
Data measured with spectrometer [name]: 1906252U1
Wave   ;Sample   ;Dark     ;Reference;Absorbance
[nm]   ;[counts] ;[counts] ;[counts] ;[A.U]

 161.30;  256.322;  271.207;  271.637; 0.00000
 161.90;  263.719;  265.524;  261.712; 0.00000
 162.51;  274.102;  259.038;  260.433;-1.03361
 163.11;  279.840;  265.693;  251.834; 0.00000
 163.71;  271.140;  276.696;  266.803; 0.00000
 164.31;  276.155;  294.270;  273.488; 0.00000
 164.91;  286.080;  288.393;  287.410; 0.00000
 165.52;  287.268;  277.299;  279.261;-0.70597
 166.12;  268.730;  271.979;  273.718; 5.00000
 166.72;  256.435;  272.971;  259.755; 0.00000
 167.32;  258.386;  271.656;  271.040; 0.00000
 167.93;  272.867;  261.266;  267.518;-0.26850
 168.53;  277.643;  254.112;  260.296;-0.58042
 169.13;  277.273;  264.427;  257.261; 0.00000
 169.73;  279.696;  271.677;  266.351; 0.00000
 170.33;  298.551;  291.614;  320.561; 0.62043
 170.94;  320.027;  317.756;  347.746; 1.12068
 171.54;  338.159;  335.278;  387.239; 1.25617
 172.14;  346.455;  338.926;  375.538; 0.68687
 172.74;  345.435;  324.358;  373.181; 0.36481
 173.34;  334.488;  319.589;  355.569; 0.38291
 173.95;  324.176;  309.596;  343.923; 0.37188
 174.55;  326.148;  318.289;  355.228; 0.67212
 175.15;  331.741;  320.689;  367.155; 0.62370
 175.75;  350.117;  322.370;  380.195; 0.31890
 176.35;  359.953;  332.415;  382.036; 0.25573
 176.95;  364.818;  327.740;  392.907; 0.24491
 177.56;  350.932;  327.608;  398.355; 0.48191
 178.16;  331.544;  316.738;  399.298; 0.74631
 178.76;  331.738;  316.306;  398.487; 0.72635
 179.36;  337.931;  310.874;  401.343; 0.52422
 179.96;  342.070;  304.800;  395.813; 0.38774
 180.56;  345.891;  308.938;  392.969; 0.35679
 181.17;  345.365;  318.009;  403.448; 0.49460
 181.77;  365.429;  318.897;  417.181; 0.32472
 182.37;  363.027;  306.653;  404.111; 0.23774
 182.97;  376.039;  319.309;  413.789; 0.22153
 183.57;  391.528;  323.525;  427.944; 0.18625
 184.17;  419.690;  336.736;  473.104; 0.21587
 184.78;  432.508;  316.624;  484.587; 0.16119
 185.38;  426.752;  315.012;  504.833; 0.23013
 185.98;  442.220;  315.783;  504.638; 0.17425
 186.58;  466.696;  316.598;  510.449; 0.11109
 187.18;  483.257;  313.002;  491.678; 0.02097
 187.78;  493.648;  324.256;  526.070; 0.07606
 188.38;  493.071;  331.840;  541.159; 0.11336
 188.98;  500.111;  337.804;  574.199; 0.16330
 189.59;  492.112;  332.575;  567.529; 0.16812
 190.19;  492.297;  326.870;  580.708; 0.18595
 190.79;  491.526;  326.914;  573.939; 0.17628
 191.39;  484.869;  317.159;  564.285; 0.16836
 191.99;  481.616;  322.498;  545.363; 0.14632
 192.59;  476.185;  317.307;  539.929; 0.14651
 193.19;  473.963;  313.765;  525.712; 0.12157
 193.79;  470.196;  325.164;  530.280; 0.15053
 194.39;  456.580;  328.250;  517.658; 0.16907
 195.00;  443.400;  327.216;  511.139; 0.19949
 195.60;  422.323;  305.566;  480.732; 0.17617
 196.20;  391.394;  304.088;  469.473; 0.27745
 196.80;  386.245;  305.278;  453.989; 0.26403
 197.40;  377.774;  313.686;  455.186; 0.34398
 198.00;  397.042;  320.693;  452.457; 0.23699
 198.60;  381.531;  317.270;  442.943; 0.29130
 199.20;  361.437;  312.435;  427.513; 0.37078
 199.80;  344.014;  303.957;  416.753; 0.44961
 200.40;  334.795;  299.492;  396.868; 0.44064
 201.00;  331.691;  293.841;  371.434; 0.31175
 201.60;  326.992;  292.845;  340.403; 0.14387
 202.21;  328.162;  298.995;  352.240; 0.26138
 202.81;  326.475;  303.760;  367.883; 0.45070
 203.41;  329.850;  301.801;  377.921; 0.43359
 204.01;  326.872;  296.447;  373.611; 0.40418
 204.61;  331.063;  287.965;  374.799; 0.30424
 205.21;  324.929;  280.528;  391.328; 0.39715
 205.81;  322.169;  276.000;  394.567; 0.40961
 206.41;  322.934;  281.190;  389.667; 0.41474
 207.01;  333.447;  291.585;  373.516; 0.29163
 207.61;  324.816;  290.832;  349.221; 0.23506
 208.21;  319.018;  294.007;  340.088; 0.26539
 208.81;  311.978;  285.376;  350.048; 0.38580
 209.41;  313.884;  292.971;  355.294; 0.47423
 210.01;  318.754;  286.985;  361.835; 0.37219
 210.61;  316.577;  290.534;  351.990; 0.37288
 211.21;  313.143;  293.399;  356.219; 0.50266
 211.81;  315.521;  300.157;  352.258; 0.53034
 212.41;  301.442;  301.896;  344.513; 5.00000
 213.01;  298.549;  296.332;  351.625; 1.39673
 213.61;  299.596;  285.263;  357.339; 0.70145
 214.21;  313.671;  282.939;  368.411; 0.44424
 214.81;  314.984;  278.704;  361.387; 0.35775
 215.41;  314.910;  282.466;  362.645; 0.39293
 216.01;  302.119;  278.247;  362.189; 0.54608
 216.61;  308.720;  287.920;  357.792; 0.52624
 217.21;  298.983;  290.599;  357.391; 0.90128
 217.81;  305.727;  297.221;  367.800; 0.91893
 218.41;  305.675;  301.628;  379.081; 1.28191
 219.01;  306.430;  307.801;  388.505; 5.00000
 219.61;  304.164;  301.739;  384.906; 1.53520
 220.21;  299.770;  297.568;  378.507; 1.56534
 220.81;  303.644;  283.737;  372.713; 0.65027
 221.41;  321.955;  284.091;  376.024; 0.38525
 222.01;  318.982;  280.426;  372.049; 0.37592
 222.61;  315.380;  298.953;  367.451; 0.62011
 223.21;  314.693;  301.813;  357.103; 0.63276
 223.81;  348.933;  301.952;  360.676; 0.09689
 224.41;  341.551;  281.875;  343.618; 0.01479
 225.01;  319.520;  269.317;  340.250; 0.15012
 225.61;  298.965;  274.108;  341.033; 0.43015
 226.21;  307.512;  273.112;  349.918; 0.34884
 226.81;  322.435;  286.490;  349.175; 0.24153
 227.41;  328.875;  284.059;  344.282; 0.12833
 228.01;  340.838;  302.172;  351.241; 0.10349
 228.61;  342.742;  306.727;  360.474; 0.17387
 229.21;  333.635;  303.825;  362.700; 0.29558
 229.81;  329.056;  308.998;  372.791; 0.50249
 230.41;  331.661;  299.055;  383.396; 0.41275
 231.01;  331.538;  300.808;  405.942; 0.53418
 231.61;  311.024;  287.307;  401.095; 0.68103
 232.21;  312.755;  300.328;  383.489; 0.82554
 232.81;  293.864;  296.307;  370.928; 5.00000
 233.41;  315.932;  302.578;  372.995; 0.72208
 234.00;  313.184;  298.240;  379.918; 0.73762
 234.60;  319.220;  290.487;  363.623; 0.40574
 235.20;  323.860;  295.152;  359.264; 0.34893
 235.80;  327.362;  295.330;  365.432; 0.34014
 236.40;  336.309;  302.765;  379.044; 0.35678
 237.00;  323.753;  303.584;  384.824; 0.60507
 237.60;  311.243;  294.000;  377.651; 0.68585
 238.20;  309.141;  295.121;  389.214; 0.82682
 238.80;  300.932;  274.112;  389.668; 0.63433
 239.40;  310.672;  279.177;  403.402; 0.59597
 240.00;  326.909;  284.599;  402.640; 0.44558
 240.59;  326.910;  298.133;  401.312; 0.55455
 241.19;  330.008;  297.989;  399.745; 0.50216
 241.79;  323.312;  288.710;  384.715; 0.44319
 242.39;  347.841;  292.222;  383.909; 0.21709
 242.99;  344.051;  286.642;  375.121; 0.18786
 243.59;  327.689;  289.230;  388.763; 0.41297
 244.19;  301.155;  286.160;  385.560; 0.82145
 244.79;  307.918;  287.511;  384.652; 0.67761
 245.39;  324.822;  287.293;  395.554; 0.46011
 245.98;  347.054;  273.053;  391.453; 0.20412
 246.58;  329.887;  274.487;  389.290; 0.31644
 247.18;  333.958;  285.342;  384.364; 0.30895
 247.78;  328.355;  295.696;  398.758; 0.49908
 248.38;  331.094;  288.656;  421.162; 0.49448
 248.98;  313.581;  277.356;  419.988; 0.59521
 249.58;  306.598;  265.673;  430.671; 0.60550
 250.17;  314.773;  275.285;  426.842; 0.58410
 250.77;  325.232;  283.143;  431.967; 0.54851
 251.37;  320.682;  286.929;  425.089; 0.61207
 251.97;  323.068;  270.293;  429.805; 0.48036
 252.57;  327.483;  265.298;  436.882; 0.44080
 253.17;  328.435;  272.929;  449.172; 0.50177
 253.77;  338.214;  284.186;  466.282; 0.52769
 254.36;  336.711;  295.474;  468.774; 0.62352
 254.96;  345.836;  295.333;  480.567; 0.56440
 255.56;  321.570;  288.604;  484.301; 0.77351
 256.16;  335.449;  278.462;  506.509; 0.60225
 256.76;  329.381;  277.524;  496.109; 0.62482
 257.36;  345.210;  276.735;  508.603; 0.52971
 257.95;  318.321;  264.992;  503.713; 0.65093
 258.55;  318.024;  264.239;  518.084; 0.67391
 259.15;  314.062;  260.564;  510.454; 0.66941
 259.75;  327.605;  269.345;  523.998; 0.64058
 260.35;  335.582;  267.461;  538.318; 0.59946
 260.94;  330.020;  268.819;  539.764; 0.64612
 261.54;  334.029;  275.530;  547.771; 0.66780
 262.14;  329.688;  279.723;  553.422; 0.73861
 262.74;  342.773;  296.084;  592.169; 0.80220
 263.34;  337.537;  285.302;  604.600; 0.78624
 263.93;  333.139;  271.414;  619.201; 0.75085
 264.53;  348.721;  269.158;  628.783; 0.65514
 265.13;  339.500;  270.950;  628.566; 0.71741
 265.73;  343.401;  275.426;  648.466; 0.73940
 266.33;  325.669;  278.566;  678.397; 0.92882
 266.92;  327.948;  275.029;  689.673; 0.89406
 267.52;  329.334;  279.954;  705.726; 0.93563
 268.12;  337.549;  273.264;  717.281; 0.83929
 268.72;  358.107;  281.951;  749.175; 0.78782
 269.31;  375.769;  293.596;  782.505; 0.77450
 269.91;  373.286;  296.813;  783.686; 0.80391
 270.51;  368.686;  298.884;  823.747; 0.87618
 271.11;  365.960;  296.018;  844.685; 0.89457
 271.70;  366.624;  281.274;  877.686; 0.84434
 272.30;  361.190;  270.568;  887.924; 0.83330
 272.90;  348.013;  264.784;  909.412; 0.88903
 273.50;  351.460;  274.785;  916.521; 0.92270
 274.09;  349.808;  285.359;  947.539; 1.01176
 274.69;  375.288;  293.425;  961.690; 0.91186
 275.29;  368.975;  297.126; 1011.041; 0.99723
 275.89;  383.775;  301.162; 1057.168; 0.96148
 276.48;  383.311;  306.441; 1108.365; 1.01838
 277.08;  390.613;  303.217; 1149.330; 0.98594
 277.68;  385.208;  300.562; 1156.928; 1.00505
 278.28;  393.023;  297.934; 1188.748; 0.97166
 278.87;  407.153;  305.120; 1219.213; 0.95225
 279.47;  421.296;  316.402; 1279.019; 0.96270
 280.07;  420.149;  311.564; 1306.537; 0.96204
 280.66;  418.082;  305.599; 1329.806; 0.95930
 281.26;  427.216;  299.502; 1356.605; 0.91788
 281.86;  442.740;  299.353; 1408.460; 0.88846
 282.46;  454.612;  289.111; 1464.667; 0.85144
 283.05;  472.789;  270.001; 1525.842; 0.79189
 283.65;  484.196;  269.267; 1577.248; 0.78431
 284.25;  487.644;  276.537; 1628.707; 0.80653
 284.84;  499.084;  297.639; 1660.819; 0.83040
 285.44;  513.620;  304.585; 1722.349; 0.83139
 286.04;  552.241;  306.626; 1767.304; 0.77430
 286.63;  568.484;  299.604; 1827.551; 0.75455
 287.23;  582.516;  285.934; 1878.582; 0.72997
 287.83;  609.240;  285.987; 1956.635; 0.71334
 288.42;  625.066;  282.947; 2012.456; 0.70375
 289.02;  631.293;  281.018; 2081.351; 0.71094
 289.62;  640.307;  274.153; 2105.373; 0.69908
 290.21;  664.816;  278.965; 2173.882; 0.69117
 290.81;  697.104;  296.139; 2171.832; 0.67006
 291.41;  704.218;  301.675; 2217.279; 0.67749
 292.00;  720.862;  287.695; 2273.257; 0.66123
 292.60;  727.179;  266.816; 2355.570; 0.65679
 293.20;  769.560;  269.053; 2441.953; 0.63763
 293.79;  785.809;  275.331; 2498.541; 0.63900
 294.39;  817.062;  284.326; 2544.463; 0.62762
 294.99;  829.030;  280.435; 2588.095; 0.62392
 295.58;  881.233;  284.687; 2619.961; 0.59269
 296.18;  914.176;  271.100; 2672.236; 0.57215
 296.78;  955.798;  267.474; 2741.524; 0.55562
 297.37;  993.184;  256.039; 2819.912; 0.54134
 297.97; 1023.714;  255.858; 2927.442; 0.54149
 298.57; 1067.495;  262.727; 2989.557; 0.52999
 299.16; 1104.055;  278.359; 3083.789; 0.53118
 299.76; 1130.631;  281.775; 3176.366; 0.53275
 300.35; 1125.632;  281.214; 3269.362; 0.54884
 300.95; 1109.064;  278.404; 3324.462; 0.56431
 301.55; 1156.776;  287.229; 3346.846; 0.54637
 302.14; 1218.959;  278.314; 3431.366; 0.52531
 302.74; 1281.123;  277.164; 3537.862; 0.51159
 303.33; 1312.171;  277.506; 3665.575; 0.51515
 303.93; 1337.880;  284.053; 3763.621; 0.51876
 304.53; 1392.001;  290.889; 3809.743; 0.50457
 305.12; 1442.663;  285.666; 3889.067; 0.49338
 305.72; 1502.679;  304.345; 3962.749; 0.48471
 306.31; 1510.421;  292.556; 4062.826; 0.49077
 306.91; 1543.501;  290.122; 4183.574; 0.49225
 307.51; 1565.330;  280.000; 4278.734; 0.49291
 308.10; 1647.645;  295.710; 4394.048; 0.48165
 308.70; 1667.675;  291.190; 4468.751; 0.48215
 309.29; 1716.077;  287.634; 4547.826; 0.47457
 309.89; 1756.930;  264.902; 4638.675; 0.46708
 310.48; 1861.351;  273.673; 4739.754; 0.44916
 311.08; 1922.714;  268.620; 4876.118; 0.44491
 311.68; 1945.307;  273.221; 4959.384; 0.44756
 312.27; 1996.204;  278.703; 5074.278; 0.44594
 312.87; 2049.443;  271.869; 5225.848; 0.44513
 313.46; 2105.608;  276.691; 5385.013; 0.44608
 314.06; 2144.482;  276.193; 5529.885; 0.44902
 314.65; 2199.824;  282.238; 5632.559; 0.44562
 315.25; 2266.522;  283.262; 5774.255; 0.44227
 315.85; 2344.477;  277.637; 5914.876; 0.43576
 316.44; 2407.539;  287.913; 6071.938; 0.43597
 317.04; 2465.921;  295.255; 6216.984; 0.43586
 317.63; 2522.941;  310.823; 6400.341; 0.43977
 318.23; 2588.891;  298.737; 6546.296; 0.43585
 318.82; 2658.814;  293.221; 6674.883; 0.43099
 319.42; 2693.145;  273.276; 6781.545; 0.42967
 320.01; 2759.574;  280.055; 6929.646; 0.42843
 320.61; 2841.585;  290.511; 7164.652; 0.43050
 321.20; 2927.214;  285.758; 7272.939; 0.42246
 321.80; 2972.988;  292.860; 7497.718; 0.42947
 322.39; 3009.134;  275.154; 7636.540; 0.43016
 322.99; 3068.481;  275.755; 7857.556; 0.43374
 323.58; 3165.129;  286.597; 7977.531; 0.42681
 324.18; 3270.610;  287.901; 8124.673; 0.41953
 324.77; 3371.280;  292.485; 8318.013; 0.41609
 325.37; 3426.100;  278.984; 8442.167; 0.41395
 325.96; 3470.227;  276.253; 8588.958; 0.41541
 326.56; 3540.030;  298.768; 8771.095; 0.41729
 327.15; 3606.710;  300.036; 8947.778; 0.41751
 327.75; 3696.135;  300.925; 9129.536; 0.41503
 328.34; 3749.774;  272.723; 9291.838; 0.41395
 328.94; 3832.511;  266.072; 9447.905; 0.41069
 329.53; 3896.816;  277.765; 9658.876; 0.41366
 330.13; 3981.396;  293.098; 9872.460; 0.41451
 330.72; 4035.835;  297.428;10112.576; 0.41921
 331.32; 4135.671;  296.807;10347.750; 0.41800
 331.91; 4211.307;  286.021;10578.045; 0.41863
 332.51; 4315.032;  290.846;10832.428; 0.41823
 333.10; 4404.291;  280.941;11112.686; 0.41945
 333.69; 4514.473;  268.720;11343.870; 0.41639
 334.29; 4545.233;  259.020;11372.294; 0.41377
 334.88; 4576.495;  263.526;11404.218; 0.41214
 335.48; 4590.786;  274.151;11347.513; 0.40913
 336.07; 4629.329;  277.361;11521.065; 0.41222
 336.67; 4681.048;  271.793;11561.792; 0.40833
 337.26; 4717.666;  270.478;11724.744; 0.41088
 337.86; 4772.335;  274.661;11795.073; 0.40848
 338.45; 4807.472;  285.081;11996.201; 0.41323
 339.04; 4848.319;  280.248;12122.714; 0.41371
 339.64; 4920.786;  279.247;12324.855; 0.41417
 340.23; 4973.178;  276.541;12444.594; 0.41343
 340.83; 5037.253;  283.446;12579.002; 0.41271
 341.42; 5099.350;  284.034;12728.085; 0.41234
 342.02; 5177.985;  280.810;12860.717; 0.40973
 342.61; 5210.429;  285.029;12994.842; 0.41170
 343.20; 5231.944;  280.703;13173.363; 0.41563
 343.80; 5271.435;  275.024;13326.514; 0.41700
 344.39; 5349.701;  277.525;13574.777; 0.41857
 344.99; 5455.843;  284.701;13698.586; 0.41397
 345.58; 5506.256;  281.629;13941.331; 0.41739
 346.17; 5580.868;  272.425;14086.941; 0.41537
 346.77; 5647.097;  263.601;14425.499; 0.42006
 347.36; 5735.670;  267.766;14640.403; 0.41972
 347.96; 5827.007;  271.456;14918.073; 0.42101
 348.55; 5869.344;  272.039;15018.413; 0.42071
 349.14; 5910.527;  269.152;15148.264; 0.42119
 349.74; 5962.235;  282.193;15379.635; 0.42455
 350.33; 6115.882;  292.264;15619.281; 0.42026
 350.92; 6219.355;  292.029;15990.758; 0.42301
 351.52; 6309.981;  276.988;16197.719; 0.42143
 352.11; 6355.298;  277.642;16449.038; 0.42501
 352.70; 6452.061;  293.221;16652.467; 0.42426
 353.30; 6525.617;  299.069;16923.354; 0.42650
 353.89; 6599.421;  289.556;17199.826; 0.42813
 354.49; 6708.717;  295.537;17471.125; 0.42784
 355.08; 6811.168;  303.789;17648.240; 0.42575
 355.67; 6885.138;  306.509;17850.877; 0.42600
 356.27; 6962.012;  292.678;18013.082; 0.42439
 356.86; 7050.645;  288.376;18230.048; 0.42377
 357.45; 7122.261;  297.756;18507.331; 0.42623
 358.05; 7185.546;  297.214;18684.613; 0.42641
 358.64; 7239.897;  292.504;18894.298; 0.42773
 359.23; 7351.756;  289.300;19081.825; 0.42503
 359.83; 7495.980;  289.121;19433.380; 0.42429
 360.42; 7591.865;  293.174;19722.600; 0.42522
 361.01; 7657.421;  287.355;19981.487; 0.42687
 361.61; 7656.463;  287.502;20183.522; 0.43136
 362.20; 7751.327;  294.987;20496.718; 0.43286
 362.79; 7820.238;  302.910;20634.303; 0.43210
 363.38; 7940.779;  301.613;20815.514; 0.42900
 363.98; 7983.650;  289.171;20943.715; 0.42884
 364.57; 8024.752;  277.744;21176.149; 0.43098
 365.16; 8110.764;  288.573;21351.502; 0.43019
 365.76; 8143.214;  293.720;21537.287; 0.43239
 366.35; 8252.474;  294.920;21731.542; 0.43038
 366.94; 8338.061;  286.459;21913.791; 0.42912
 367.53; 8456.401;  286.426;22067.466; 0.42586
 368.13; 8554.089;  291.994;22246.489; 0.42443
 368.72; 8536.226;  285.482;22413.295; 0.42845
 369.31; 8620.299;  292.281;22597.374; 0.42786
 369.91; 8623.466;  283.382;22746.877; 0.43031
 370.50; 8685.656;  291.699;22820.059; 0.42876
 371.09; 8722.513;  278.017;22946.909; 0.42886
 371.68; 8775.596;  286.967;23106.324; 0.42947
 372.28; 8807.186;  294.984;23340.584; 0.43255
 372.87; 8843.436;  297.367;23443.502; 0.43271
 373.46; 8898.861;  297.723;23614.255; 0.43311
 374.05; 9007.100;  287.889;23758.158; 0.43004
 374.65; 9058.111;  290.440;23950.173; 0.43113
 375.24; 9095.953;  272.918;24146.349; 0.43230
 375.83; 9172.972;  275.848;24331.370; 0.43197
 376.42; 9288.160;  273.516;24515.563; 0.42962
 377.02; 9418.431;  293.907;24527.502; 0.42421
 377.61; 9493.599;  288.112;24762.668; 0.42467
 378.20; 9565.052;  297.747;24944.118; 0.42480
 378.79; 9624.486;  297.015;25086.217; 0.42450
 379.38; 9615.381;  282.191;25204.109; 0.42655
 379.98; 9689.745;  267.243;25344.469; 0.42511
 380.57; 9796.685;  272.112;25606.751; 0.42487
 381.16; 9924.058;  291.609;25727.129; 0.42170
 381.75;10000.081;  289.589;25767.151; 0.41892
 382.35;10075.204;  283.703;25937.612; 0.41830
 382.94;10213.296;  271.231;26182.039; 0.41600
 383.53;10377.685;  279.541;26558.760; 0.41537
 384.12;10470.556;  269.432;26865.627; 0.41617
 384.71;10534.283;  284.069;27028.687; 0.41650
 385.31;10609.150;  287.699;27353.893; 0.41869
 385.90;10708.696;  299.731;27598.110; 0.41873
 386.49;10808.911;  283.306;27919.987; 0.41924
 387.08;10868.196;  296.763;28085.602; 0.41974
 387.67;11093.192;  302.047;28384.267; 0.41536
 388.26;11324.016;  312.463;28670.094; 0.41082
 388.86;11548.710;  297.866;29041.131; 0.40735
 389.45;11639.227;  285.685;29324.329; 0.40784
 390.04;11714.416;  279.860;29566.863; 0.40846
 390.63;11794.910;  284.795;29878.048; 0.41011
 391.22;11849.003;  294.422;30097.179; 0.41150
 391.81;11996.229;  303.408;30368.117; 0.41014
 392.41;12099.364;  324.211;30517.642; 0.40895
 393.00;12338.595;  349.022;30747.606; 0.40405
 393.59;12466.794;  379.676;31111.212; 0.40526
 394.18;12650.710;  399.780;31505.223; 0.40467
 394.77;12768.638;  433.703;31930.599; 0.40713
 395.36;12947.599;  473.557;32244.356; 0.40602
 395.95;13096.789;  524.323;32561.017; 0.40623
 396.55;13201.048;  566.236;32856.406; 0.40750
 397.14;13279.246;  594.577;33298.717; 0.41132
 397.73;13415.077;  601.786;33627.642; 0.41119
 398.32;13623.114;  612.294;34204.404; 0.41193
 398.91;13825.683;  621.039;34614.988; 0.41067
 399.50;14049.439;  632.059;35200.379; 0.41101
 400.09;14347.769;  605.452;35675.306; 0.40687
 400.68;14688.349;  582.293;36366.134; 0.40428
 401.27;15085.654;  548.561;37014.694; 0.39941
 401.87;15403.327;  525.771;37604.957; 0.39660
 402.46;15759.329;  501.053;38119.893; 0.39190
 403.05;16025.075;  484.389;38675.942; 0.39050
 403.64;16208.248;  490.521;39240.769; 0.39188
 404.23;16405.569;  484.797;39841.080; 0.39305
 404.82;16634.187;  502.588;40438.695; 0.39369
 405.41;16988.649;  491.629;41140.816; 0.39165
 406.00;17304.494;  497.890;41752.976; 0.39000
 406.59;17519.682;  479.966;42383.807; 0.39079
 407.18;17761.611;  482.149;42943.385; 0.39046
 407.77;17985.599;  466.520;43500.038; 0.39030
 408.37;18285.903;  484.641;43973.019; 0.38792
 408.96;18561.436;  491.806;44465.898; 0.38625
 409.55;18775.490;  504.476;44970.283; 0.38626
 410.14;19040.673;  481.626;45459.452; 0.38444
 410.73;19220.028;  490.299;45905.805; 0.38467
 411.32;19426.959;  492.855;46441.730; 0.38503
 411.91;19556.125;  505.687;47060.216; 0.38806
 412.50;19657.887;  480.732;47624.639; 0.39064
 413.09;19853.668;  484.505;48110.411; 0.39073
 413.68;20047.520;  482.467;48573.257; 0.39058
 414.27;20332.181;  487.472;48936.919; 0.38764
 414.86;20494.241;  462.470;49236.309; 0.38647
 415.45;20709.351;  452.555;49687.411; 0.38570
 416.04;20898.682;  462.743;50083.734; 0.38527
 416.63;21097.557;  468.551;50542.275; 0.38513
 417.22;21193.300;  461.867;50754.683; 0.38488
 417.81;21194.431;  462.159;51068.477; 0.38756
 418.40;21338.298;  476.694;51393.675; 0.38751
 418.99;21479.799;  477.832;51737.830; 0.38752
 419.58;21638.696;  462.218;51969.382; 0.38601
 420.17;21708.376;  452.952;52248.392; 0.38682
 420.76;21790.157;  458.593;52499.836; 0.38732
 421.35;21919.090;  472.988;53005.769; 0.38908
 421.94;21954.490;  474.287;53203.501; 0.39001
 422.53;22046.292;  469.601;53402.299; 0.38974
 423.12;22053.156;  471.552;53493.823; 0.39037
 423.71;22117.198;  463.366;53670.857; 0.39044
 424.30;22064.886;  471.573;53819.883; 0.39280
 424.89;22105.034;  477.611;53888.037; 0.39262
 425.48;22103.029;  477.854;53974.356; 0.39337
 426.07;22189.712;  465.438;53940.695; 0.39121
 426.66;22133.197;  460.097;54040.507; 0.39308
 427.25;22152.127;  453.014;53995.096; 0.39225
 427.84;21947.081;  450.549;53912.043; 0.39567
 428.43;21934.814;  452.848;53711.442; 0.39432
 429.02;21841.592;  457.772;53797.552; 0.39697
 429.61;21811.821;  448.720;53826.107; 0.39769
 430.20;21650.828;  425.820;53758.443; 0.40015
 430.79;21486.297;  437.001;53531.580; 0.40181
 431.38;21409.265;  442.471;53315.543; 0.40170
 431.97;21157.162;  451.391;53001.434; 0.40448
 432.55;21029.738;  445.807;52690.011; 0.40451
 433.14;20812.806;  441.412;52704.411; 0.40917
 433.73;20690.458;  432.971;52655.054; 0.41127
 434.32;20508.675;  424.624;52606.263; 0.41467
 434.91;20374.482;  423.161;52233.737; 0.41445
 435.50;20169.283;  418.064;51971.869; 0.41667
 436.09;19953.056;  418.432;51687.970; 0.41905
 436.68;19812.728;  422.559;51624.303; 0.42170
 437.27;19781.885;  439.214;51661.122; 0.42294
 437.86;19589.998;  433.576;51508.561; 0.42589
 438.45;19466.428;  436.794;51330.326; 0.42723
 439.04;19307.405;  419.148;51043.637; 0.42817
 439.62;19207.741;  412.025;51000.963; 0.43000
 440.21;18909.490;  413.441;50885.373; 0.43597
 440.80;18775.655;  430.263;51024.538; 0.44057
 441.39;18670.274;  449.560;51081.161; 0.44386
 441.98;18564.077;  447.874;51020.625; 0.44585
 442.57;18375.015;  436.530;50797.219; 0.44831
 443.16;18182.047;  425.660;50702.578; 0.45201
 443.75;18072.718;  431.481;50788.909; 0.45553
 444.33;18003.859;  435.018;50969.383; 0.45884
 444.92;17946.493;  440.355;50892.685; 0.45969
 445.51;17853.804;  417.614;50850.986; 0.46127
 446.10;17802.703;  410.612;51056.876; 0.46420
 446.69;17668.377;  404.712;51275.545; 0.46934
 447.28;17534.893;  420.929;51457.726; 0.47453
 447.87;17324.219;  412.657;51329.383; 0.47868
 448.45;17191.921;  413.036;51412.748; 0.48280
 449.04;17089.822;  390.874;51445.980; 0.48535
 449.63;17021.802;  386.972;51646.289; 0.48875
 450.22;16919.314;  381.501;51835.467; 0.49294
 450.81;16776.398;  386.090;52100.884; 0.49903
 451.40;16683.640;  391.666;52058.120; 0.50123
 451.98;16589.593;  398.229;52052.065; 0.50382
 452.57;16444.665;  403.856;52211.469; 0.50917
 453.16;16260.219;  401.626;52273.023; 0.51466
 453.75;16129.572;  391.994;52359.708; 0.51880
 454.34;16180.549;  388.814;52215.013; 0.51612
 454.93;16095.240;  395.232;52494.699; 0.52093
 455.51;15934.427;  391.805;52615.216; 0.52634
 456.10;15766.994;  402.670;52907.445; 0.53369
 456.69;15653.263;  396.116;53041.712; 0.53789
 457.28;15572.087;  403.304;53288.203; 0.54238
 457.87;15424.886;  395.902;53216.666; 0.54588
 458.45;15272.254;  396.108;53304.691; 0.55104
 459.04;15223.279;  388.965;53401.373; 0.55311
 459.63;15116.385;  395.666;53676.141; 0.55864
 460.22;15078.043;  396.420;53639.128; 0.55949
 460.80;14961.732;  400.600;53692.823; 0.56347
 461.39;14988.802;  392.483;53895.895; 0.56414
 461.98;14982.030;  393.792;54364.115; 0.56815
 462.57;15004.200;  398.874;54782.941; 0.57096
 463.16;14968.872;  397.668;55197.607; 0.57528
 463.74;14945.477;  387.726;55673.212; 0.57952
 464.33;14898.372;  376.102;56213.777; 0.58489
 464.92;14927.657;  370.427;56547.398; 0.58648
 465.51;14953.971;  357.831;56911.710; 0.58822
 466.09;15009.826;  358.204;57352.888; 0.58995
 466.68;14917.381;  361.518;57898.436; 0.59691
 467.27;14901.584;  372.331;58292.638; 0.60059
 467.86;14875.347;  368.243;58560.733; 0.60329
 468.44;14882.537;  363.094;58919.922; 0.60563
 469.03;14880.768;  361.882;59322.152; 0.60863
 469.62;14878.326;  367.807;59788.037; 0.61225
 470.20;14907.297;  365.300;60231.337; 0.61456
 470.79;14930.490;  374.762;60677.863; 0.61731
 471.38;14959.461;  358.816;61146.166; 0.61944
 471.97;14956.355;  359.020;61564.389; 0.62252
 472.55;14922.980;  350.111;61933.679; 0.62592
 473.14;14893.237;  362.234;62406.602; 0.63041
 473.73;14938.512;  355.473;62971.535; 0.63284
 474.31;14955.429;  347.428;63489.444; 0.63573
 474.90;15014.230;  350.797;63899.238; 0.63687
 475.49;15009.904;  352.737;64160.914; 0.63883
 476.07;15049.644;  357.870;64473.326; 0.63989
 476.66;15079.489;  347.892;64752.829; 0.64067
 477.25;15043.999;  340.581;65000.332; 0.64322
 477.84;15066.195;  352.761;65155.193; 0.64388
 478.42;15069.950;  344.733;65155.945; 0.64359
 479.01;15124.673;  344.681;65156.001; 0.64198
 479.60;15118.185;  330.210;65156.511; 0.64184
 480.18;15020.269;  334.265;65158.257; 0.64483
 480.77;14936.163;  342.135;65159.480; 0.64752
 481.35;14794.389;  347.900;65159.373; 0.65189
 481.94;14756.204;  344.738;65159.188; 0.65296
 482.53;14750.275;  335.059;65159.923; 0.65292
 483.11;14709.063;  332.000;65160.709; 0.65410
 483.70;14668.743;  318.067;65161.719; 0.65500
 484.29;14576.686;  316.585;65163.324; 0.65777
 484.87;14518.241;  306.461;65164.542; 0.65932
 485.46;14481.971;  315.710;65164.272; 0.66065
 486.05;14464.948;  319.958;65162.920; 0.66126
 486.63;14386.950;  321.237;65162.258; 0.66369
 487.22;14331.936;  317.302;65162.909; 0.66530
 487.81;14254.400;  323.288;65164.368; 0.66786
 488.39;14188.507;  331.856;65164.474; 0.67014
 488.98;14042.764;  337.207;65163.733; 0.67486
 489.56;13930.495;  317.228;65164.794; 0.67793
 490.15;13785.743;  310.772;65166.371; 0.68242
 490.74;13621.163;  302.771;65167.454; 0.68756
 491.32;13436.156;  305.937;65168.774; 0.69372
 491.91;13383.777;  316.111;64974.057; 0.69442
 492.49;13252.700;  317.823;64712.314; 0.69709
 493.08;13125.850;  332.939;64167.133; 0.69808
 493.67;12876.269;  325.500;63724.219; 0.70341
 494.25;12704.232;  343.920;63105.848; 0.70567
 494.84;12519.140;  335.724;62474.087; 0.70759
 495.42;12384.479;  338.386;61959.759; 0.70889
 496.01;12277.370;  319.873;61399.648; 0.70826
 496.59;12091.837;  310.443;60754.114; 0.71015
 497.18;11927.203;  311.106;60078.479; 0.71140
 497.77;11728.361;  311.733;59331.632; 0.71346
 498.35;11601.195;  326.966;58841.796; 0.71518
 498.94;11445.948;  324.499;58030.218; 0.71506
 499.52;11354.251;  324.914;57567.186; 0.71517
 500.11;11240.003;  311.275;56906.600; 0.71421
 500.69;11204.982;  304.601;56449.246; 0.71187
 501.28;11145.778;  315.149;55764.708; 0.70924
 501.86;11056.185;  317.653;55155.772; 0.70814
 502.45;10929.114;  338.264;54632.693; 0.70982
 503.03;10850.409;  328.939;54106.656; 0.70853
 503.62;10771.505;  339.385;53665.090; 0.70856
 504.20;10751.717;  326.215;53123.968; 0.70452
 504.79;10694.901;  326.766;52666.148; 0.70313
 505.37;10725.624;  326.582;52358.543; 0.69928
 505.96;10712.182;  332.269;51859.105; 0.69584
 506.55;10709.576;  327.706;51491.158; 0.69268
 507.13;10720.141;  315.837;51254.709; 0.68984
 507.72;10729.491;  312.954;51138.387; 0.68836
 508.30;10836.067;  319.265;50944.634; 0.68248
 508.89;10935.579;  316.460;50626.145; 0.67556
 509.47;11137.826;  308.593;50383.056; 0.66502
 510.05;11195.981;  311.037;50305.214; 0.66209
 510.64;11343.306;  312.992;50205.541; 0.65545
 511.22;11474.920;  326.961;50242.492; 0.65104
 511.81;11640.285;  323.186;50282.527; 0.64488
 512.39;11806.037;  329.747;50266.280; 0.63862
 512.98;11932.537;  310.647;50213.110; 0.63285
 513.56;12162.383;  306.947;50200.284; 0.62413
 514.15;12425.277;  297.484;50225.841; 0.61457
 514.73;12609.442;  293.306;50310.339; 0.60864
 515.32;12848.149;  298.909;50412.714; 0.60134
 515.90;12972.902;  306.909;50529.464; 0.59826
 516.49;13251.038;  321.223;50576.262; 0.58959
 517.07;13468.583;  323.415;50501.804; 0.58175
 517.66;13678.733;  325.663;50468.951; 0.57463
 518.24;13835.558;  330.491;50581.443; 0.57065
 518.82;13971.898;  322.791;50433.118; 0.56482
 519.41;14180.357;  321.449;50483.238; 0.55864
 519.99;14464.734;  304.901;50520.942; 0.54978
 520.58;14840.641;  313.039;50964.514; 0.54240
 521.16;15218.330;  316.114;51139.212; 0.53281
 521.75;15514.956;  315.579;51354.849; 0.52608
 522.33;15896.611;  314.722;51552.832; 0.51697
 522.91;16179.236;  303.280;51724.449; 0.51040
 523.50;16485.879;  304.661;51708.091; 0.50198
 524.08;16686.311;  292.957;51816.521; 0.49734
 524.67;16941.620;  296.699;52029.160; 0.49248
 525.25;17170.433;  294.898;52244.306; 0.48832
 525.83;17427.472;  300.195;52281.679; 0.48216
 526.42;17785.114;  299.604;52255.985; 0.47296
 527.00;18132.436;  297.414;52315.968; 0.46488
 527.59;18504.861;  293.742;52194.390; 0.45484
 528.17;18772.267;  296.702;52169.461; 0.44834
 528.75;19003.254;  314.407;52237.781; 0.44378
 529.34;19185.346;  317.963;52410.206; 0.44106
 529.92;19463.839;  322.096;52599.701; 0.43633
 530.50;19774.226;  308.099;52577.086; 0.42896
 531.09;19976.062;  310.277;52580.588; 0.42454
 531.67;20141.546;  319.699;52493.409; 0.42031
 532.25;20340.758;  331.224;52474.618; 0.41596
 532.84;20572.886;  319.265;52286.406; 0.40923
 533.42;20871.935;  303.579;52069.121; 0.40084
 534.00;21063.095;  296.379;51800.283; 0.39447
 534.59;21267.171;  306.923;51692.027; 0.38944
 535.17;21354.105;  307.396;51484.292; 0.38589
 535.75;21546.499;  311.833;51399.345; 0.38127
 536.34;21684.133;  327.170;51106.314; 0.37615
 536.92;21833.838;  323.362;50970.357; 0.37190
 537.50;22011.846;  320.767;50555.361; 0.36472
 538.09;22180.759;  304.234;50224.272; 0.35830
 538.67;22295.191;  307.957;49849.711; 0.35280
 539.25;22333.054;  292.004;49517.578; 0.34896
 539.84;22411.569;  298.382;49195.084; 0.34463
 540.42;22426.236;  287.620;48747.408; 0.34023
 541.00;22580.441;  304.712;48328.615; 0.33363
 541.59;22687.303;  293.453;47996.146; 0.32841
 542.17;22830.802;  303.713;47681.974; 0.32287
 542.75;22805.916;  301.687;47449.085; 0.32119
 543.33;22819.265;  321.928;47035.436; 0.31731
 543.92;22875.297;  322.791;46647.473; 0.31262
 544.50;23026.827;  319.637;46212.001; 0.30558
 545.08;23119.896;  303.653;45900.067; 0.30069
 545.67;23143.684;  304.594;45544.519; 0.29684
 546.25;23134.430;  306.855;45243.598; 0.29414
 546.83;23156.723;  305.919;44881.223; 0.29019
 547.41;23235.462;  307.185;44485.963; 0.28484
 548.00;23289.249;  304.048;44073.416; 0.27972
 548.58;23319.176;  293.554;43651.340; 0.27486
 549.16;23416.476;  273.252;43462.973; 0.27096
 549.74;23481.510;  276.221;43125.006; 0.26635
 550.33;23558.526;  287.338;42789.017; 0.26159
 550.91;23614.319;  287.502;42328.145; 0.25581
 551.49;23720.902;  275.114;42084.067; 0.25120
 552.07;23850.511;  281.527;41894.675; 0.24689
 552.66;23902.422;  296.715;41696.915; 0.24399
 553.24;23955.973;  301.874;41407.799; 0.24000
 553.82;24148.901;  287.046;41262.389; 0.23482
 554.40;24238.159;  287.502;41018.645; 0.23061
 554.98;24277.373;  286.839;40927.197; 0.22892
 555.57;24334.281;  295.511;40724.442; 0.22578
 556.15;24603.364;  295.794;40729.857; 0.22101
 556.73;24782.033;  289.872;40584.856; 0.21622
 557.31;24874.609;  280.087;40487.094; 0.21346
 557.89;24911.748;  267.680;40402.230; 0.21181
 558.48;25137.670;  270.725;40389.487; 0.20773
 559.06;25297.154;  269.279;40492.969; 0.20606
 559.64;25521.213;  288.172;40421.363; 0.20153
 560.22;25613.680;  308.276;40298.501; 0.19874
 560.80;25723.282;  311.749;40155.433; 0.19533
 561.39;25904.993;  300.174;40123.139; 0.19181
 561.97;26209.990;  304.256;40118.465; 0.18664
 562.55;26468.444;  305.864;40159.584; 0.18279
 563.13;26594.009;  307.652;40244.814; 0.18165
 563.71;26704.529;  295.320;40343.674; 0.18083
 564.29;26842.362;  296.315;40286.513; 0.17795
 564.88;27067.557;  280.495;40218.374; 0.17346
 565.46;27241.290;  277.260;40267.767; 0.17117
 566.04;27528.098;  269.464;40338.574; 0.16731
 566.62;27765.977;  292.162;40520.457; 0.16561
 567.20;27981.198;  292.265;40647.678; 0.16360
 567.78;28119.272;  300.170;40851.754; 0.16366
 568.36;28390.272;  300.837;41002.754; 0.16107
 568.94;28561.710;  296.460;41004.189; 0.15842
 569.53;28895.715;  295.816;41099.192; 0.15433
 570.11;29104.012;  283.902;41113.488; 0.15128
 570.69;29378.439;  278.869;41248.245; 0.14857
 571.27;29433.122;  279.854;41227.262; 0.14754
 571.85;29530.082;  279.584;41295.220; 0.14682
 572.43;29798.414;  299.078;41479.213; 0.14488
 573.01;30043.731;  288.199;41566.526; 0.14215
 573.59;30192.544;  284.931;41522.011; 0.13951
 574.17;30261.175;  270.419;41423.650; 0.13742
 574.76;30471.617;  278.826;41529.098; 0.13552
 575.34;30827.182;  274.920;41725.997; 0.13249
 575.92;31111.706;  271.771;41808.186; 0.12932
 576.50;31270.025;  265.398;41828.507; 0.12728
 577.08;31305.900;  261.206;41866.048; 0.12716
 577.66;31403.873;  250.776;41875.013; 0.12585
 578.24;31565.354;  252.747;41879.155; 0.12365
 578.82;31710.113;  257.942;41897.583; 0.12186
 579.40;31867.074;  266.978;41903.210; 0.11978
 579.98;31987.491;  273.567;41841.961; 0.11751
 580.56;32183.515;  281.852;41853.319; 0.11498
 581.14;32312.030;  291.659;41917.834; 0.11394
 581.72;32402.441;  280.280;42082.244; 0.11439
 582.30;32521.001;  273.151;42074.467; 0.11269
 582.88;32594.155;  274.650;42152.288; 0.11252
 583.46;32841.351;  282.363;42189.821; 0.10962
 584.04;32983.649;  282.956;42171.457; 0.10754
 584.62;33236.350;  265.125;42197.830; 0.10442
 585.21;33261.285;  267.265;42241.428; 0.10455
 585.79;33344.869;  273.754;42392.009; 0.10502
 586.37;33421.835;  277.118;42415.309; 0.10426
 586.95;33662.322;  275.522;42455.787; 0.10153
 587.53;33960.027;  269.979;42469.819; 0.09781
 588.11;34172.800;  278.442;42585.262; 0.09628
 588.69;34272.065;  282.733;42557.865; 0.09474
 589.27;34253.676;  283.424;42506.477; 0.09445
 589.85;34300.470;  276.026;42443.602; 0.09319
 590.43;34474.808;  271.715;42599.939; 0.09256
 591.01;34596.387;  278.076;42722.853; 0.09230
 591.59;34766.478;  288.299;42936.945; 0.09236
 592.16;34789.523;  287.924;42891.657; 0.09161
 592.74;34944.915;  291.617;42886.045; 0.08961
 593.32;35021.823;  293.193;42739.948; 0.08716
 593.90;35187.510;  297.895;42708.966; 0.08478
 594.48;35247.913;  288.777;42603.037; 0.08293
 595.06;35339.680;  285.245;42684.475; 0.08261
 595.64;35301.112;  272.769;42709.242; 0.08332
 596.22;35571.676;  276.890;42757.472; 0.08048
 596.80;35520.826;  268.138;42505.619; 0.07851
 597.38;35571.100;  264.245;42457.558; 0.07738
 597.96;35365.118;  262.869;42299.911; 0.07830
 598.54;35434.276;  268.057;42320.734; 0.07767
 599.12;35388.951;  272.769;42174.074; 0.07672
 599.70;35249.169;  272.156;42133.628; 0.07803
 600.28;35182.753;  269.178;41999.881; 0.07746
 600.86;35194.111;  273.568;41898.236; 0.07627
 601.44;35269.530;  279.130;41816.989; 0.07450
 602.02;35389.191;  273.135;41601.984; 0.07075
 602.59;35508.708;  269.019;41487.164; 0.06806
 603.17;35459.532;  254.435;41427.991; 0.06801
 603.75;35313.571;  264.600;41407.036; 0.06961
 604.33;35152.574;  268.544;41269.041; 0.07016
 604.91;35177.180;  272.574;41056.648; 0.06761
 605.49;35141.267;  271.546;40985.067; 0.06729
 606.07;34990.084;  254.900;40828.877; 0.06748
 606.65;34807.575;  260.422;40696.701; 0.06836
 607.23;34661.686;  264.441;40448.820; 0.06753
 607.80;34698.243;  277.156;40221.379; 0.06463
 608.38;34687.669;  277.256;40025.464; 0.06263
 608.96;34530.542;  285.786;39921.000; 0.06349
 609.54;34337.927;  288.246;39743.725; 0.06399
 610.12;34108.244;  283.928;39528.375; 0.06455
 610.70;33930.476;  273.259;39095.265; 0.06200
 611.28;33735.270;  259.195;38813.390; 0.06134
 611.85;33584.119;  265.841;38433.913; 0.05902
 612.43;33482.164;  260.695;38304.961; 0.05887
 613.01;33320.698;  263.202;38019.161; 0.05772
 613.59;33187.651;  249.299;37795.112; 0.05686
 614.17;32995.287;  240.914;37668.085; 0.05792
 614.75;32786.407;  222.778;37521.205; 0.05896
 615.32;32532.313;  209.277;37291.775; 0.05966
 615.90;32325.774;  219.080;36866.572; 0.05745
 616.48;32192.522;  232.952;36658.988; 0.05681
 617.06;31948.689;  255.157;36308.488; 0.05597
 617.64;31634.679;  246.140;36072.812; 0.05744
 618.22;31504.388;  241.049;35666.522; 0.05428
 618.79;31310.161;  228.178;35515.632; 0.05511
 619.37;31254.212;  227.104;35180.352; 0.05175
 619.95;30859.469;  231.387;34894.600; 0.05375
 620.53;30474.698;  218.869;34491.494; 0.05414
 621.11;30189.171;  206.529;34156.975; 0.05398
 621.68;30094.228;  201.116;33920.700; 0.05231
 622.26;30189.307;  202.843;33803.106; 0.04942
 622.84;29989.577;  212.594;33643.042; 0.05026
 623.42;29786.606;  214.208;33340.072; 0.04928
 623.99;29569.357;  232.130;33128.823; 0.04973
 624.57;29416.744;  239.695;32874.211; 0.04864
 625.15;29244.147;  249.244;32723.283; 0.04921
 625.73;29003.311;  235.066;32483.448; 0.04959
 626.30;28830.654;  228.444;32290.122; 0.04959
 626.88;28627.464;  228.031;32032.596; 0.04918
 627.46;28465.984;  230.061;31766.787; 0.04801
 628.04;28297.422;  242.419;31549.234; 0.04763
 628.61;28099.958;  241.899;31249.103; 0.04651
 629.19;28028.264;  244.829;31015.066; 0.04434
 629.77;27779.958;  231.831;30736.758; 0.04428
 630.35;27521.062;  234.217;30562.869; 0.04590
 630.92;27187.777;  232.092;30375.921; 0.04855
 631.50;27016.997;  220.757;30199.145; 0.04873
 632.08;26952.529;  206.521;29949.680; 0.04613
 632.66;26752.979;  196.801;29744.460; 0.04636
 633.23;26559.280;  216.776;29426.430; 0.04487
 633.81;26355.872;  225.566;29138.020; 0.04394
 634.39;26246.944;  220.298;28844.754; 0.04132
 634.96;26175.316;  221.956;28624.791; 0.03917
 635.54;25997.414;  216.680;28606.896; 0.04187
 636.12;25721.486;  214.735;28334.976; 0.04236
 636.69;25450.437;  204.526;28222.591; 0.04525
 637.27;25256.019;  199.403;27913.834; 0.04378
 637.85;25144.582;  217.219;27696.062; 0.04232
 638.42;24946.509;  206.286;27392.989; 0.04095
 639.00;24711.639;  223.367;27259.457; 0.04299
 639.58;24421.123;  209.789;26981.612; 0.04366
 640.15;24191.967;  222.891;26790.445; 0.04470
 640.73;24043.415;  204.119;26492.226; 0.04247
 641.31;24063.196;  216.013;26471.006; 0.04177
 641.88;24012.644;  210.908;26285.787; 0.03961
 642.46;23846.091;  226.803;26132.901; 0.04014
 643.04;23637.873;  214.697;25934.349; 0.04062
 643.61;23526.987;  223.925;25817.463; 0.04072
 644.19;23478.435;  209.153;25659.577; 0.03891
 644.77;23409.883;  224.048;25468.358; 0.03694
 645.34;23207.997;  211.943;25293.805; 0.03771
 645.92;23015.778;  214.504;25070.586; 0.03747
 646.49;22867.893;  218.399;24938.033; 0.03798
 647.07;22757.007;  220.293;24745.814; 0.03673
 647.65;22629.455;  224.188;24564.928; 0.03598
 648.22;22511.903;  218.082;24391.042; 0.03515
 648.80;22482.684;  227.310;24368.156; 0.03532
 649.37;22460.132;  227.872;24339.937; 0.03525
 649.95;22283.246;  227.433;24242.051; 0.03695
 650.53;22138.027;  209.328;24121.165; 0.03760
 651.10;22029.475;  214.222;24054.279; 0.03855
 651.68;21889.589;  211.450;24020.060; 0.04071
 652.25;21859.037;  221.012;23899.174; 0.03913
 652.83;21727.152;  211.573;23700.955; 0.03812
 653.41;21829.266;  208.468;23524.069; 0.03277
 653.98;21678.381;  212.362;23340.850; 0.03240
 654.56;21649.828;  211.590;23307.630; 0.03235
 655.13;21451.943;  208.818;23285.744; 0.03596
 655.71;21428.724;  207.379;23284.525; 0.03641
 656.28;21271.172;  194.941;23185.639; 0.03776
 656.86;21127.953;  188.169;22962.753; 0.03648
 657.43;21037.734;  190.397;22872.868; 0.03664
 658.01;21077.515;  212.958;22793.315; 0.03432
 658.58;21191.296;  207.519;22876.096; 0.03354
 659.16;21177.411;  211.747;22798.876; 0.03235
 659.74;21110.525;  196.309;22777.324; 0.03330
 660.31;21070.640;  204.203;22714.438; 0.03293
 660.89;21003.754;  198.098;22687.885; 0.03380
 661.46;20987.535;  206.659;22545.999; 0.03141
 662.04;20929.316;  208.554;22516.780; 0.03206
 662.61;20921.431;  207.448;22500.894; 0.03191
 663.19;20976.212;  206.676;22626.342; 0.03320
 663.76;20955.660;  209.571;22600.456; 0.03314
 664.34;20916.108;  211.132;22526.237; 0.03252
 664.91;20837.555;  214.027;22413.684; 0.03198
 665.49;20918.337;  216.922;22441.798; 0.03084
 666.06;21005.784;  213.150;22513.246; 0.03040
 666.64;21076.232;  212.044;22555.693; 0.02975
 667.21;21025.013;  216.606;22500.140; 0.02975
 667.79;20989.128;  204.167;22400.588; 0.02853
 668.36;21008.909;  201.395;22402.702; 0.02816
 668.93;21012.023;  202.290;22421.149; 0.02846
 669.51;21030.804;  198.184;22426.263; 0.02816
 670.08;20912.586;  192.412;22387.044; 0.02985
 670.66;20909.367;  189.307;22273.825; 0.02770
 671.23;20970.481;  213.201;22361.606; 0.02817
 671.81;20984.929;  219.763;22403.720; 0.02870
 672.38;20997.710;  224.324;22501.167; 0.03035
 672.96;20892.158;  213.552;22510.281; 0.03272
 673.53;20959.272;  213.113;22482.395; 0.03077
 674.10;20976.053;  213.008;22524.843; 0.03124
 674.68;21059.835;  228.236;22505.290; 0.02914
 675.25;21036.282;  221.131;22417.404; 0.02790
 675.83;20994.730;  215.692;22370.185; 0.02784
 676.40;20942.511;  203.253;22300.299; 0.02754
 676.98;20970.292;  209.148;22323.413; 0.02742
 677.55;21006.407;  210.043;22281.527; 0.02584
 678.12;20915.855;  223.937;22260.975; 0.02735
 678.70;20812.969;  221.832;22236.089; 0.02902
 679.27;20730.084;  229.060;22163.870; 0.02936
 679.85;20666.198;  216.621;22124.984; 0.02993
 680.42;20632.313;  216.516;22133.431; 0.03081
 680.99;20559.760;  192.744;22099.212; 0.03164
 681.57;20615.541;  198.305;22028.659; 0.02906
 682.14;20576.989;  205.866;21848.773; 0.02630
 682.71;20567.770;  210.761;21795.554; 0.02543
 683.29;20457.552;  200.656;21706.668; 0.02599
 683.86;20387.999;  185.884;21546.116; 0.02421
 684.43;20265.447;  198.112;21362.230; 0.02311
 685.01;20225.562;  197.006;21197.011; 0.02057
 685.58;20162.343;  206.234;21272.458; 0.02351
 686.16;20209.124;  206.462;21269.239; 0.02243
 686.73;20171.905;  215.023;21397.686; 0.02589
 687.30;20123.353;  207.585;21388.467; 0.02675
 687.88;20056.134;  217.479;21321.914; 0.02686
 688.45;19951.915;  210.707;21118.362; 0.02493
 689.02;19963.363;  213.602;21022.142; 0.02268
 689.60;19811.477;  190.497;20889.257; 0.02322
 690.17;19848.592;  199.391;20926.704; 0.02320
 690.74;19656.373;  189.619;20805.485; 0.02491
 691.31;19637.154;  204.181;20824.932; 0.02577
 691.89;19499.602;  191.742;20754.713; 0.02735
 692.46;19549.050;  212.637;20700.494; 0.02512
 693.03;19534.831;  229.198;20611.941; 0.02358
 693.61;19483.945;  234.759;20426.722; 0.02077
 694.18;19341.060;  237.320;20424.503; 0.02396
 694.75;19239.174;  206.882;20414.950; 0.02603
 695.32;19171.955;  208.110;20458.064; 0.02850
 695.90;19152.070;  203.004;20312.512; 0.02581
 696.47;19105.184;  203.899;20210.626; 0.02468
 697.04;19079.965;  214.460;20060.073; 0.02200
 697.62;18985.746;  213.355;20039.187; 0.02371
 698.19;18940.194;  229.250;19951.301; 0.02286
 698.76;18914.975;  211.144;19960.082; 0.02361
 699.33;18916.423;  210.706;19883.196; 0.02188
 699.91;18761.871;  196.600;19795.977; 0.02354
 700.48;18737.319;  206.162;19674.091; 0.02142
 701.05;18578.433;  208.056;19645.538; 0.02452
 701.62;18625.214;  232.951;19536.652; 0.02101
 702.20;18428.662;  235.179;19463.767; 0.02403
 702.77;18470.777;  232.073;19314.881; 0.01965
 703.34;18415.891;  217.301;19303.995; 0.02069
 703.91;18378.005;  214.196;19161.775; 0.01835
 704.48;18230.787;  220.091;19054.223; 0.01942
 705.06;18183.901;  212.652;18964.004; 0.01845
 705.63;18168.349;  221.213;18940.118; 0.01829
 706.20;18177.130;  214.441;18934.565; 0.01794
 706.77;17999.578;  221.336;18864.679; 0.02063
 707.34;17904.692;  215.564;18821.793; 0.02195
 707.92;17814.473;  205.792;18710.907; 0.02156
 708.49;17752.255;  193.353;18575.022; 0.01989
 709.06;17811.369;  193.248;18466.136; 0.01585
 709.63;17745.483;  194.476;18431.916; 0.01666
 710.20;17703.931;  191.037;18446.697; 0.01804
 710.77;17532.712;  187.932;18338.145; 0.01971
 711.35;17536.827;  185.826;18305.592; 0.01883
 711.92;17639.941;  205.721;18271.706; 0.01546
 712.49;17659.722;  207.616;18372.487; 0.01738
 713.06;17684.504;  215.844;18405.934; 0.01758
 713.63;17669.618;  209.405;18498.382; 0.02014
 714.20;17719.066;  212.300;18556.829; 0.02030
 714.78;17651.180;  209.528;18487.277; 0.02034
 715.35;17624.295;  205.756;18407.724; 0.01911
 715.92;17584.076;  207.317;18351.838; 0.01878
 716.49;17681.524;  222.545;18343.285; 0.01616
 717.06;17586.971;  226.106;18273.400; 0.01684
 717.63;17534.419;  217.334;18198.847; 0.01635
 718.20;17394.200;  210.895;18175.294; 0.01931
 718.77;17399.648;  224.790;18170.075; 0.01906
 719.35;17353.763;  226.351;18153.189; 0.01981
 719.92;17341.877;  211.913;18038.303; 0.01731
 720.49;17266.325;  197.474;17879.084; 0.01532
 721.06;17209.106;  177.369;17774.532; 0.01418
 721.63;17147.887;  190.930;17799.979; 0.01639
 722.20;17123.668;  195.825;17861.426; 0.01853
 722.77;17147.783;  203.386;17825.540; 0.01703
 723.34;17136.230;  196.947;17821.321; 0.01722
 723.91;17119.678;  205.509;17813.102; 0.01745
 724.48;17070.459;  222.070;17777.883; 0.01786
 725.05;16980.907;  212.964;17617.997; 0.01620
 725.62;16937.688;  195.192;17490.778; 0.01412
 726.20;16940.469;  186.754;17461.892; 0.01331
 726.77;16916.251;  192.982;17446.339; 0.01355
 727.34;16963.698;  199.210;17412.787; 0.01148
 727.91;16955.146;  209.104;17361.567; 0.01041
 728.48;17036.261;  214.999;17354.015; 0.00813
 729.05;17003.042;  215.560;17353.795; 0.00898
 729.62;16968.156;  192.788;17320.910; 0.00904
 730.19;16954.604;  185.683;17297.024; 0.00878
 730.76;16978.385;  188.578;17324.138; 0.00885
 731.33;16934.500;  211.472;17306.252; 0.00955
 731.90;16841.281;  215.034;17274.033; 0.01116
 732.47;16707.062;  206.261;17242.147; 0.01386
 733.04;16656.843;  191.156;17245.594; 0.01526
 733.61;16616.291;  168.051;17256.042; 0.01657
 734.18;16577.739;  173.945;17191.156; 0.01594
 734.75;16449.853;  184.507;17077.270; 0.01644
 735.32;16387.301;  211.401;16955.384; 0.01499
 735.89;16340.415;  203.963;16851.831; 0.01355
 736.46;16335.530;  212.191;16734.945; 0.01063
 737.03;16262.311;  203.085;16674.393; 0.01100
 737.60;16149.092;  203.647;16580.840; 0.01160
 738.17;16037.206;  173.208;16558.621; 0.01404
 738.74;15978.654;  184.103;16523.735; 0.01473
 739.31;15922.102;  185.331;16430.849; 0.01382
 739.88;15831.550;  195.225;16300.630; 0.01284
 740.45;15704.331;  176.120;16234.411; 0.01458
 741.02;15719.779;  174.348;16293.858; 0.01575
 741.59;15768.560;  171.909;16337.305; 0.01556
 742.15;15835.008;  177.804;16325.753; 0.01340
 742.72;15897.122;  185.365;16376.867; 0.01306
 743.29;15858.237;  187.593;16351.648; 0.01346
 743.86;15863.351;  195.154;16298.095; 0.01189
 744.43;15792.466;  197.049;16220.543; 0.01176
 745.00;15876.580;  201.277;16240.323; 0.00996
 745.57;15873.028;  209.172;16261.771; 0.01065
 746.14;15843.142;  201.733;16198.552; 0.00976
 746.71;15846.257;  208.294;16179.666; 0.00916
 747.28;15847.371;  196.522;16170.446; 0.00887
 747.85;15836.152;  172.417;16124.227; 0.00791
 748.42;15769.267;  173.645;16103.675; 0.00921
 748.98;15727.715;  177.206;16075.455; 0.00960
 749.55;15745.162;  197.767;16011.569; 0.00738
 750.12;15737.610;  197.662;16015.683; 0.00770
 750.69;15708.725;  204.890;15955.131; 0.00685
 751.26;15596.839;  216.118;15910.245; 0.00876
 751.83;15564.287;  206.013;15821.026; 0.00720
 752.40;15455.068;  204.907;15769.807; 0.00887
 752.97;15366.516;  192.802;15780.587; 0.01169
 753.53;15305.297;  195.697;15773.035; 0.01324
 754.10;15304.745;  187.925;15706.815; 0.01140
 754.67;15370.526;  185.486;15666.263; 0.00838
 755.24;15258.640;  192.714;15616.044; 0.01018
 755.81;15253.755;  200.608;15583.491; 0.00941
 756.38;15209.203;  223.503;15510.272; 0.00864
 756.94;15151.650;  215.064;15482.386; 0.00951
 757.51;14992.098;  204.292;15502.833; 0.01475
 758.08;14845.546;  196.520;15545.281; 0.02026
 758.65;14817.994;  213.748;15443.728; 0.01822
 759.22;14793.775;  220.643;15351.176; 0.01630
 759.79;14717.889;  205.538;15180.623; 0.01363
 760.35;14614.004;  191.432;15130.404; 0.01528
 760.92;14492.785;  201.994;14987.518; 0.01478
 761.49;14438.899;  208.555;14849.965; 0.01237
 762.06;14447.681;  211.783;14641.079; 0.00586
 762.63;14395.795;  201.011;14500.527; 0.00319
 763.19;14250.576;  203.239;14469.641; 0.00672
 763.76;14020.024;  215.133;14423.422; 0.01251
 764.33;13891.805;  219.695;14294.202; 0.01260
 764.90;13740.253;  218.589;14107.650; 0.01164
 765.46;13573.034;  197.817;13914.097; 0.01094
 766.03;13408.482;  196.045;13749.878; 0.01108
 766.60;13346.596;  197.940;13624.992; 0.00910
 767.17;13290.377;  205.501;13465.773; 0.00578
 767.73;13191.825;  207.063;13413.220; 0.00734
 768.30;13044.940;  206.624;13205.001; 0.00538
 768.87;12800.054;  215.185;13045.782; 0.00840
 769.44;12635.835;  213.413;12836.229; 0.00695
 770.00;12419.283;  215.975;12686.677; 0.00941
 770.57;12326.731;  216.536;12525.791; 0.00708
 771.14;12116.179;  213.430;12350.238; 0.00846
 771.71;11889.626;  198.325;12122.686; 0.00857
 772.27;11676.407;  206.220;11935.800; 0.00971
 772.84;11480.855;  209.448;11715.914; 0.00896
 773.41;11373.303;  213.676;11595.695; 0.00857
 773.97;11223.418;  205.904;11440.809; 0.00849
 774.54;11096.199;  213.798;11314.923; 0.00864
 775.11;10934.980;  232.360;11227.370; 0.01171
 775.67;10777.094;  228.588;11074.818; 0.01209
 776.24;10649.875;  222.482;10902.265; 0.01039
 776.81;10503.657;  220.377;10665.712; 0.00679
 777.38;10375.438;  208.272;10484.160; 0.00462
 777.94;10246.885;  214.166;10350.941; 0.00448
 778.51;10138.000;  199.728;10214.721; 0.00334
 779.08;10048.448;  210.622;10137.835; 0.00393
 779.64; 9954.229;  201.517;10058.283; 0.00461
 780.21; 9887.010;  202.745; 9970.064; 0.00371
 780.78; 9819.458;  211.639; 9870.178; 0.00229
 781.34; 9716.906;  212.534; 9787.625; 0.00322
 781.91; 9594.020;  225.762; 9703.406; 0.00504
 782.47; 9449.801;  227.990; 9633.520; 0.00857
 783.04; 9393.582;  238.551; 9482.634; 0.00420
 783.61; 9335.363;  245.779; 9385.415; 0.00238
 784.17; 9260.145;  246.674; 9320.196; 0.00288
 784.74; 9172.926;  236.569; 9240.310; 0.00326
 785.31; 9103.373;  244.797; 9256.090; 0.00742
 785.87; 9057.821;  248.691; 9137.538; 0.00391
 786.44; 8985.269;  252.252; 9126.319; 0.00696
 787.00; 8925.050;  239.480; 9065.766; 0.00698
 787.57; 8909.498;  222.375; 9005.880; 0.00479
 788.14; 8857.612;  242.936; 8941.661; 0.00422
 788.70; 8884.394;  252.831; 8828.442;-0.00282
 789.27; 8816.841;  261.392; 8880.222; 0.00321
 789.83; 8798.622;  247.620; 8836.003; 0.00189
 790.40; 8773.404;  230.182; 8838.117; 0.00328
 790.96; 8798.185;  235.076; 8799.898; 0.00009
 791.53; 8776.299;  229.304; 8766.679;-0.00049
 792.10; 8673.414;  224.866; 8777.126; 0.00530
 792.66; 8627.861;  219.094; 8720.574; 0.00476
 793.23; 8626.643;  214.988; 8733.688; 0.00549
 793.79; 8631.757;  216.216; 8675.468; 0.00225
 794.36; 8572.205;  210.777; 8660.249; 0.00455
 794.92; 8498.986;  219.339; 8606.363; 0.00560
 795.49; 8479.434;  232.233; 8532.811; 0.00280
 796.05; 8422.215;  243.461; 8505.258; 0.00439
 796.62; 8359.996;  248.023; 8527.372; 0.00887
 797.19; 8243.110;  237.917; 8507.820; 0.01413
 797.75; 8221.892;  226.145; 8453.600; 0.01241
 798.32; 8245.006;  218.373; 8393.714; 0.00797
 798.88; 8286.454;  222.601; 8383.829; 0.00521
 799.45; 8321.902;  224.829; 8436.276; 0.00609
 800.01; 8468.683;  220.391; 8517.723; 0.00257
 800.58; 8656.131;  215.952; 8677.504; 0.00110
 801.14; 8893.245;  222.513; 8916.952; 0.00119
 801.71; 9083.359;  218.074; 9117.399; 0.00166
 802.27; 9295.807;  206.969; 9310.180; 0.00069
 802.84; 9574.588;  188.864; 9480.294;-0.00439
 803.40; 9843.036;  179.758; 9723.075;-0.00543
 803.96;10108.817;  198.986;10006.189;-0.00452
 804.53;10325.932;  210.548;10273.303;-0.00227
 805.09;10587.046;  208.442;10576.417;-0.00045
 805.66;10927.827;  200.670;10926.198;-0.00007
 806.22;11335.275;  172.898;11264.978;-0.00274
 806.79;11776.723;  185.793;11622.426;-0.00582
 807.35;12114.171;  182.354;11886.873;-0.00835
 807.92;12375.619;  214.582;12161.654;-0.00771
 808.48;12611.400;  221.810;12436.768;-0.00616
 809.05;12913.847;  217.705;12708.882;-0.00707
 809.61;13205.295;  213.933;13054.330;-0.00508
 810.17;13533.410;  218.827;13355.110;-0.00586
 810.74;13878.191;  231.055;13671.891;-0.00662
 811.30;14195.972;  226.617;13899.672;-0.00931
 811.87;14486.086;  214.511;14212.453;-0.00841
 812.43;14819.201;  214.406;14571.233;-0.00744
 812.99;15130.649;  216.967;14881.014;-0.00733
 813.56;15462.430;  221.862;15191.462;-0.00779
 814.12;15723.211;  221.090;15523.909;-0.00562
 814.69;16160.325;  216.318;15866.356;-0.00808
 815.25;16466.773;  210.213;16143.804;-0.00871
 815.81;16728.554;  200.774;16302.251;-0.01135
 816.38;16944.002;  196.335;16642.699;-0.00788
 816.94;17335.783;  193.897;16882.479;-0.01164
 817.51;17607.898;  192.791;17283.594;-0.00816
 818.07;17913.012;  201.019;17504.374;-0.01014
 818.63;18120.793;  202.247;17804.155;-0.00774
 819.20;18483.908;  201.808;18033.936;-0.01082
 819.76;18632.689;  209.370;18216.050;-0.00993
 820.32;18841.470;  216.598;18394.831;-0.01054
 820.89;18936.585;  218.159;18583.278;-0.00828
 821.45;19032.366;  193.387;18775.726;-0.00596
 822.01;19069.147;  176.615;18965.173;-0.00240
 822.58;19163.595;  180.843;19065.620;-0.00225
 823.14;19320.709;  194.404;19233.068;-0.00199
 823.70;19390.490;  202.299;19352.182;-0.00087
 824.27;19403.271;  193.194;19462.963; 0.00135
 824.83;19477.719;  215.421;19467.743;-0.00022
 825.39;19494.834;  215.649;19374.524;-0.00272
 825.95;19413.948;  221.211;19316.972;-0.00220
 826.52;19203.729;  191.105;19274.752; 0.00162
 827.08;19024.177;  189.000;19152.200; 0.00294
 827.64;18839.625;  175.895;18949.314; 0.00254
 828.21;18700.739;  175.123;18660.095;-0.00095
 828.77;18379.187;  181.351;18397.542; 0.00044
 829.33;18077.301;  183.579;18029.323;-0.00117
 829.89;17701.083;  181.807;17638.104;-0.00156
 830.46;17426.197;  185.701;17297.218;-0.00326
 831.02;17012.311;  190.596;16895.332;-0.00303
 831.58;16616.093;  201.157;16540.779;-0.00200
 832.15;16113.874;  185.052;16128.893; 0.00041
 832.71;15708.988;  188.280;15811.341; 0.00285
 833.27;15255.103;  178.841;15353.455; 0.00282
 833.83;14787.550;  169.736;14940.569; 0.00452
 834.39;14340.998;  164.297;14394.016; 0.00162
 834.96;13829.113;  162.192;13925.464; 0.00305
 835.52;13459.227;  187.086;13474.578; 0.00050
 836.08;13099.008;  188.981;13047.025;-0.00175
 836.64;12703.456;  194.876;12619.473;-0.00293
 837.21;12306.904;  198.770;12148.920;-0.00570
 837.77;11867.018;  198.332;11759.367;-0.00403
 838.33;11526.799;  206.893;11447.148;-0.00307
 838.89;11076.247;  203.121;11001.596;-0.00299
 839.45;10651.028;  205.349;10589.710;-0.00256
 840.02;10208.810;  209.910;10134.490;-0.00324
 840.58; 9779.591;  201.805; 9836.938; 0.00259
 841.14; 9422.372;  224.699; 9457.052; 0.00163
 841.70; 9033.153;  220.594; 9049.833; 0.00082
 842.26; 8631.267;  218.155; 8613.280;-0.00093
 842.82; 8190.715;  209.050; 8233.061; 0.00230
 843.39; 7777.496;  200.278; 7802.175; 0.00141
 843.95; 7431.611;  213.839; 7446.956; 0.00092
 844.51; 7071.725;  213.734; 7076.737; 0.00032
 845.07; 6766.840;  223.295; 6751.184;-0.00104
 845.63; 6515.954;  228.523; 6447.965;-0.00472
 846.19; 6267.402;  213.418; 6205.745;-0.00445
 846.75; 6103.850;  212.646; 6042.860;-0.00452
 847.32; 5867.298;  191.874; 5828.307;-0.00299
 847.88; 5683.745;  198.435; 5647.088;-0.00291
 848.44; 5428.860;  182.996; 5418.202;-0.00088
 849.00; 5248.641;  188.224; 5206.649;-0.00362
 849.56; 5114.089;  183.119; 5035.763;-0.00695
 850.12; 5035.870;  176.680; 4913.211;-0.01110
 850.68; 4958.651;  181.908; 4877.325;-0.00746
 851.24; 4911.432;  184.136; 4806.439;-0.00975
 851.80; 4880.880;  199.364; 4790.220;-0.00849
 852.37; 4854.328;  196.592; 4731.334;-0.01162
 852.93; 4809.109;  204.820; 4729.448;-0.00758
 853.49; 4702.557;  212.715; 4650.895;-0.00503
 854.05; 4639.004;  223.943; 4597.676;-0.00408
 854.61; 4574.452;  224.171; 4520.790;-0.00539
 855.17; 4584.567;  234.066; 4501.904;-0.00833
 855.73; 4594.014;  222.627; 4484.352;-0.01103
 856.29; 4642.129;  213.855; 4475.132;-0.01669
 856.85; 4636.243;  192.749; 4517.913;-0.01172
 857.41; 4712.691;  203.644; 4600.027;-0.01099
 857.97; 4771.139;  205.205; 4760.141;-0.00105
 858.53; 4923.920;  207.433; 4902.255;-0.00200
 859.09; 5096.701;  192.328; 5028.370;-0.00609
 859.65; 5330.482;  184.889; 5166.484;-0.01407
 860.21; 5614.930;  182.451; 5403.598;-0.01723
 860.77; 5855.045;  179.679; 5685.045;-0.01321
 861.33; 6174.159;  189.573; 6014.826;-0.01172
 861.89; 6481.274;  205.135; 6331.273;-0.01051
 862.45; 6864.055;  215.363; 6656.387;-0.01378
 863.01; 7179.169;  205.924; 6960.168;-0.01386
 863.57; 7510.617;  191.152; 7240.949;-0.01630
 864.13; 7869.731;  180.713; 7598.730;-0.01558
 864.69; 8220.512;  188.608; 7928.510;-0.01608
 865.25; 8603.960;  208.502; 8274.958;-0.01736
 865.81; 8914.741;  215.730; 8598.739;-0.01607
 866.37; 9269.189;  213.625; 8883.853;-0.01889
 866.93; 9567.304;  200.853; 9198.967;-0.01742
 867.49; 9908.085;  216.081; 9536.081;-0.01700
 868.05;10193.866;  210.642; 9849.195;-0.01526
 868.61;10517.314;  206.870;10116.309;-0.01723
 869.17;10834.762;  185.765;10306.090;-0.02211
 869.73;11161.876;  202.660;10652.537;-0.02067
 870.29;11502.990;  209.554;10985.985;-0.02035
 870.85;11796.438;  212.115;11316.099;-0.01839
 871.41;12182.219;  192.010;11700.213;-0.01782
 871.97;12509.000;  179.571;12032.994;-0.01710
 872.53;12928.782;  184.799;12414.108;-0.01790
 873.09;13289.563;  192.361;12748.222;-0.01833
 873.65;13707.677;  202.922;13125.336;-0.01914
 874.20;14065.792;  204.150;13530.783;-0.01709
 874.76;14407.125;  206.483;13844.450;-0.01756
 875.32;14694.458;  199.150;14344.450;-0.01062
 875.88;15027.458;  204.817;14722.117;-0.00904
 876.44;15477.792;  218.150;15059.450;-0.01207
 877.00;15883.458;  218.150;15358.117;-0.01481
 877.56;16168.792;  215.483;15696.450;-0.01305
 878.12;16433.125;  204.483;16104.450;-0.00889
 878.68;16790.125;  211.817;16344.450;-0.01183
 879.23;17104.792;  207.150;16637.783;-0.01217
 879.79;17342.792;  220.483;16875.783;-0.01201
 880.35;17462.792;  205.150;17127.117;-0.00853
 880.91;17781.458;  192.150;17367.783;-0.01034
 881.47;18051.458;  175.817;17611.783;-0.01082
 882.03;18429.458;  191.483;17929.783;-0.01206
 882.59;18675.125;  204.150;18199.450;-0.01133
 883.14;18917.792;  217.150;18423.117;-0.01164
 883.70;19029.125;  220.150;18492.117;-0.01258
 884.26;19192.125;  217.483;18606.117;-0.01362
 884.82;19289.125;  200.150;18627.783;-0.01531
 885.38;19292.792;  184.483;18693.783;-0.01383
 885.94;19209.458;  186.817;18692.783;-0.01196
 886.49;19137.125;  200.150;18759.783;-0.00874
 887.05;19117.792;  192.817;18819.450;-0.00690
 887.61;19064.458;  182.817;18766.450;-0.00691
 888.17;18976.125;  175.817;18655.450;-0.00747
 888.73;18849.125;  189.483;18492.450;-0.00838
 889.28;18638.792;  190.150;18251.117;-0.00922
 889.84;18457.125;  191.817;18020.450;-0.01051
 890.40;18265.125;  194.817;17792.450;-0.01151
 890.96;18134.458;  199.483;17628.450;-0.01243
 891.51;17993.125;  189.483;17470.117;-0.01295
 892.07;17816.792;  183.817;17244.117;-0.01434
 892.63;17641.125;  190.483;17036.783;-0.01531
 893.19;17422.458;  200.817;16880.117;-0.01390
 893.74;17235.792;  215.150;16772.783;-0.01198
 894.30;17139.125;  206.150;16671.450;-0.01216
 894.86;17006.125;  185.150;16510.450;-0.01299
 895.42;16882.792;  176.483;16397.450;-0.01280
 895.97;16745.458;  175.150;16362.450;-0.01016
 896.53;16640.792;  203.817;16299.450;-0.00911
 897.09;16637.792;  212.817;16258.117;-0.01016
 897.65;16572.125;  225.483;16079.783;-0.01328
 898.20;16569.125;  228.483;15994.117;-0.01556
 898.76;16557.792;  215.150;15888.117;-0.01817
 899.32;16439.458;  215.483;15824.450;-0.01678
 899.87;16281.458;  206.483;15765.117;-0.01418
 900.43;16071.458;  206.150;15631.783;-0.01221
 900.99;16027.792;  194.483;15508.450;-0.01448
 901.54;15873.458;  181.150;15319.450;-0.01561
 902.10;15718.125;  193.150;15133.117;-0.01668
 902.66;15469.125;  208.483;14918.117;-0.01597
 903.21;15250.125;  221.817;14754.117;-0.01458
 903.77;15091.125;  229.483;14588.450;-0.01494
 904.33;14990.125;  209.483;14443.783;-0.01636
 904.88;14933.792;  198.150;14329.783;-0.01818
 905.44;14800.458;  177.150;14293.450;-0.01532
 906.00;14649.458;  191.150;14324.117;-0.00988
 906.55;14578.458;  207.483;14294.117;-0.00868
 907.11;14484.125;  214.150;14239.117;-0.00752
 907.67;14334.125;  205.817;14016.117;-0.00989
 908.22;14158.792;  196.150;13855.783;-0.00953
 908.78;14061.792;  187.817;13715.783;-0.01097
 909.33;13970.125;  195.483;13616.783;-0.01129
 909.89;13860.458;  192.150;13488.783;-0.01197
 910.45;13765.458;  201.150;13406.783;-0.01164
 911.00;13647.792;  191.483;13362.117;-0.00932
 911.56;13566.458;  203.817;13272.117;-0.00967
 912.12;13426.792;  208.483;13101.117;-0.01083
 912.67;13332.125;  221.483;12951.117;-0.01281
 913.23;13158.125;  194.150;12807.450;-0.01191
 913.78;13064.458;  178.483;12651.783;-0.01414
 914.34;12943.125;  201.483;12642.117;-0.01038
 914.89;12902.458;  216.483;12543.117;-0.01248
 915.45;12831.792;  227.150;12558.117;-0.00953
 916.01;12746.125;  195.483;12386.117;-0.01264
 916.56;12630.792;  201.483;12282.450;-0.01235
 917.12;12476.792;  196.817;12063.117;-0.01488
 917.67;12396.458;  195.483;11981.117;-0.01504
 918.23;12295.125;  182.817;11944.450;-0.01276
 918.78;12246.458;  186.483;11927.117;-0.01165
 919.34;12126.792;  188.817;11843.783;-0.01042
 919.89;12004.458;  199.150;11694.117;-0.01157
 920.45;11824.792;  185.817;11531.783;-0.01107
 921.00;11626.792;  168.817;11330.783;-0.01137
 921.56;11515.792;  176.150;11296.783;-0.00847
 922.11;11385.458;  175.150;11154.450;-0.00904
 922.67;11274.792;  202.483;11048.450;-0.00897
 923.22;11169.458;  191.150;10815.450;-0.01424
 923.78;10976.458;  202.817;10632.117;-0.01411
 924.33;10871.125;  195.817;10497.117;-0.01549
 924.89;10680.125;  196.483;10361.117;-0.01342
 925.44;10555.458;  204.817;10248.117;-0.01309
 926.00;10366.125;  201.150;10018.783;-0.01510
 926.55;10208.792;  205.150; 9867.117;-0.01509
 927.11;10067.458;  188.150; 9720.450;-0.01553
 927.66; 9934.458;  177.817; 9717.117;-0.00978
 928.22; 9820.792;  174.483; 9670.783;-0.00681
 928.77; 9836.792;  190.150; 9636.117;-0.00913
 929.33; 9880.125;  204.150; 9587.783;-0.01332
 929.88; 9882.125;  205.150; 9516.450;-0.01673
 930.43; 9786.792;  182.483; 9493.450;-0.01347
 930.99; 9718.792;  174.817; 9470.117;-0.01147
 931.54; 9694.792;  167.150; 9456.783;-0.01099
 932.10; 9751.792;  190.150; 9473.117;-0.01285
 932.65; 9757.458;  197.150; 9480.117;-0.01279
 933.21; 9808.458;  198.483; 9496.450;-0.01433
 933.76; 9767.125;  187.483; 9472.117;-0.01358
 934.31; 9853.125;  183.150; 9454.117;-0.01830
 934.87; 9807.125;  190.150; 9433.783;-0.01720
 935.42; 9835.458;  199.483; 9431.450;-0.01860
 935.98; 9716.125;  195.483; 9388.450;-0.01521
 936.53; 9712.125;  193.817; 9335.450;-0.01754
 937.08; 9643.125;  191.150; 9347.783;-0.01379
 937.64; 9646.792;  197.817; 9356.783;-0.01354
 938.19; 9680.125;  196.483; 9425.117;-0.01184
 938.74; 9666.458;  199.817; 9340.117;-0.01524
 939.30; 9649.792;  187.150; 9339.783;-0.01447
 939.85; 9481.458;  186.483; 9209.783;-0.01288
 940.40; 9502.458;  173.817; 9251.783;-0.01183
 940.96; 9475.792;  187.150; 9238.450;-0.01124
 941.51; 9576.792;  189.483; 9244.783;-0.01564
 942.06; 9485.792;  197.150; 9160.450;-0.01548
 942.62; 9402.458;  184.817; 9036.783;-0.01758
 943.17; 9272.458;  195.150; 8966.450;-0.01489
 943.72; 9181.125;  180.483; 8903.117;-0.01363
 944.28; 9133.458;  199.483; 8795.117;-0.01677
 944.83; 9053.792;  184.150; 8766.783;-0.01429
 945.38; 9037.458;  194.483; 8735.117;-0.01511
 945.94; 9036.458;  186.483; 8804.450;-0.01154
 946.49; 9019.458;  205.150; 8772.783;-0.01233
 947.04; 8955.125;  208.817; 8738.117;-0.01091
 947.60; 8822.792;  215.150; 8638.117;-0.00942
 948.15; 8741.458;  203.483; 8519.117;-0.01146
 948.70; 8583.458;  212.817; 8413.783;-0.00889
 949.25; 8518.792;  206.150; 8325.117;-0.01024
 949.81; 8425.125;  208.817; 8271.117;-0.00822
 950.36; 8407.792;  198.483; 8157.117;-0.01347
 950.91; 8287.792;  207.150; 8037.783;-0.01365
 951.46; 8157.458;  203.817; 7873.117;-0.01581
 952.02; 7975.792;  207.150; 7734.117;-0.01373
 952.57; 7828.458;  207.150; 7606.450;-0.01284
 953.12; 7693.125;  218.483; 7526.117;-0.00981
 953.67; 7587.125;  218.150; 7443.783;-0.00853
 954.23; 7497.125;  215.817; 7359.450;-0.00829
 954.78; 7349.792;  208.150; 7234.450;-0.00707
 955.33; 7231.458;  218.150; 7119.783;-0.00697
 955.88; 7151.792;  217.150; 6980.117;-0.01089
 956.44; 7127.458;  230.483; 6838.450;-0.01859
 956.99; 7073.792;  228.817; 6737.117;-0.02190
 957.54; 6980.792;  223.817; 6672.783;-0.02026
 958.09; 6909.458;  222.150; 6636.783;-0.01808
 958.64; 6823.458;  206.817; 6607.450;-0.01441
 959.20; 6788.125;  203.483; 6532.450;-0.01720
 959.75; 6745.458;  199.817; 6496.450;-0.01684
 960.30; 6760.458;  218.150; 6441.783;-0.02169
 960.85; 6735.458;  225.150; 6424.450;-0.02126
 961.40; 6720.458;  228.817; 6381.117;-0.02332
 961.95; 6677.458;  231.817; 6360.783;-0.02188
 962.51; 6600.792;  239.483; 6360.117;-0.01675
 963.06; 6565.458;  242.817; 6380.117;-0.01292
 963.61; 6584.125;  234.150; 6314.783;-0.01882
 964.16; 6609.125;  235.150; 6258.450;-0.02458
 964.71; 6555.125;  222.483; 6212.117;-0.02418
 965.26; 6525.458;  213.150; 6253.117;-0.01915
 965.81; 6509.125;  210.817; 6289.117;-0.01544
 966.36; 6538.458;  208.483; 6323.783;-0.01498
 966.92; 6545.125;  216.150; 6305.117;-0.01679
 967.47; 6650.792;  218.483; 6338.117;-0.02164
 968.02; 6691.125;  232.483; 6354.117;-0.02327
 968.57; 6735.458;  234.817; 6375.450;-0.02474
 969.12; 6687.458;  219.817; 6368.783;-0.02194
 969.67; 6736.125;  204.483; 6420.783;-0.02149
 970.22; 6789.125;  194.150; 6469.783;-0.02156
 970.77; 6863.458;  199.817; 6539.117;-0.02167
 971.32; 6923.792;  197.483; 6593.117;-0.02189
 971.87; 6988.458;  198.817; 6693.117;-0.01931
 972.42; 7084.792;  215.150; 6793.117;-0.01884
 972.98; 7181.125;  220.817; 6908.783;-0.01733
 973.53; 7276.125;  231.483; 6996.117;-0.01761
 974.08; 7304.125;  215.483; 7040.450;-0.01646
 974.63; 7405.125;  223.483; 7078.450;-0.02022
 975.18; 7432.125;  218.483; 7103.117;-0.02027
 975.73; 7544.458;  224.817; 7157.450;-0.02359
 976.28; 7471.458;  221.483; 7219.117;-0.01539
 976.83; 7511.458;  221.483; 7315.450;-0.01184
 977.38; 7529.125;  219.483; 7373.783;-0.00933
 977.93; 7640.458;  222.150; 7387.450;-0.01507
 978.48; 7695.792;  228.483; 7365.783;-0.01963
 979.03; 7699.458;  234.817; 7358.117;-0.02033
 979.58; 7676.792;  221.483; 7329.117;-0.02074
 980.13; 7603.792;  207.150; 7367.783;-0.01408
 980.68; 7542.792;  186.483; 7310.450;-0.01394
 981.23; 7577.125;  185.817; 7278.117;-0.01793
 981.78; 7589.458;  207.150; 7207.450;-0.02308
 982.33; 7601.458;  219.150; 7257.117;-0.02074
 982.88; 7528.458;  232.483; 7211.783;-0.01927
 983.43; 7422.125;  218.150; 7145.783;-0.01699
 983.98; 7322.458;  215.150; 6984.117;-0.02118
 984.53; 7209.125;  203.817; 6873.450;-0.02133
 985.08; 7229.792;  209.817; 6835.783;-0.02509
 985.63; 7168.125;  211.150; 6787.117;-0.02446
 986.18; 7082.458;  218.817; 6756.783;-0.02111
 986.73; 7017.125;  218.483; 6610.450;-0.02679
 987.27; 6964.458;  227.483; 6521.117;-0.02956
 987.82; 6933.458;  238.483; 6431.783;-0.03383
 988.37; 6808.125;  243.150; 6400.783;-0.02782
 988.92; 6673.792;  234.150; 6351.117;-0.02233
 989.47; 6523.792;  214.483; 6285.117;-0.01675
 990.02; 6421.458;  208.483; 6199.117;-0.01583
 990.57; 6350.125;  208.150; 6083.117;-0.01930
 991.12; 6322.125;  215.150; 6044.450;-0.02021
 991.67; 6254.792;  213.817; 5969.117;-0.02104
 992.22; 6223.792;  200.483; 5915.450;-0.02282
 992.77; 6099.792;  200.150; 5802.450;-0.02246
 993.31; 6005.458;  204.817; 5735.783;-0.02067
 993.86; 5890.125;  230.483; 5683.783;-0.01613
 994.41; 5809.792;  235.150; 5580.117;-0.01827
 994.96; 5687.125;  226.483; 5473.117;-0.01736
 995.51; 5538.458;  218.817; 5377.783;-0.01332
 996.06; 5455.458;  208.483; 5293.783;-0.01359
 996.61; 5372.458;  222.483; 5201.783;-0.01464
 997.15; 5284.792;  236.150; 5083.450;-0.01767
 997.70; 5142.125;  241.150; 4965.117;-0.01598
 998.25; 5009.125;  247.483; 4873.450;-0.01255
 998.80; 4888.458;  248.483; 4740.117;-0.01411
 999.35; 4782.792;  249.483; 4623.450;-0.01554
 999.90; 4648.792;  236.150; 4455.117;-0.01949
1000.44; 4495.458;  224.483; 4340.450;-0.01606
1000.99; 4366.458;  232.483; 4190.783;-0.01886
1001.54; 4246.125;  237.150; 4067.450;-0.01980
1002.09; 4139.125;  231.817; 3939.117;-0.02282
1002.64; 4004.125;  238.483; 3855.450;-0.01749
1003.18; 3879.458;  240.483; 3766.783;-0.01366
1003.73; 3788.458;  238.483; 3661.450;-0.01582
1004.28; 3726.125;  226.817; 3584.450;-0.01795
1004.83; 3646.125;  209.483; 3488.117;-0.02044
1005.38; 3580.458;  210.150; 3420.783;-0.02108
1005.92; 3456.125;  219.150; 3321.783;-0.01841
1006.47; 3353.792;  236.817; 3231.783;-0.01734
1007.02; 3272.125;  235.483; 3140.117;-0.01930
1007.57; 3189.458;  222.817; 3087.450;-0.01520
1008.11; 3159.458;  211.817; 3028.450;-0.01974
1008.66; 3105.125;  205.150; 2973.450;-0.02018
1009.21; 3068.125;  192.483; 2907.783;-0.02492
1009.75; 2987.125;  177.817; 2862.117;-0.01977
1010.30; 2872.458;  170.150; 2793.117;-0.01294
1010.85; 2802.792;  176.817; 2712.783;-0.01515
1011.40; 2755.125;  204.150; 2628.450;-0.02212
1011.94; 2696.792;  221.817; 2545.783;-0.02734
1012.49; 2610.792;  216.483; 2464.450;-0.02739
1013.04; 2509.458;  194.150; 2362.117;-0.02856
1013.58; 2415.792;  184.150; 2325.117;-0.01801
1014.13; 2336.792;  188.483; 2268.117;-0.01411
1014.68; 2280.792;  196.483; 2233.450;-0.00998
1015.23; 2230.458;  203.150; 2181.450;-0.01063
1015.77; 2188.458;  199.817; 2113.117;-0.01677
1016.32; 2144.458;  204.817; 2072.450;-0.01643
1016.87; 2087.792;  209.483; 2012.783;-0.01770
1017.41; 2047.125;  206.817; 1977.450;-0.01676
1017.96; 1989.792;  194.817; 1953.450;-0.00888
1018.50; 1954.125;  186.483; 1926.450;-0.00685
1019.05; 1882.792;  188.483; 1903.450; 0.00526
1019.60; 1822.458;  182.817; 1815.783;-0.00177
1020.14; 1802.792;  196.150; 1752.783;-0.01373
1020.69; 1784.125;  196.150; 1698.117;-0.02418
1021.24; 1763.125;  209.483; 1650.450;-0.03270
1021.78; 1707.458;  188.483; 1620.450;-0.02562
1022.33; 1653.792;  190.150; 1592.450;-0.01859
1022.87; 1576.458;  182.817; 1587.783; 0.00351
1023.42; 1529.125;  198.150; 1567.117; 0.01222
1023.97; 1487.458;  200.150; 1516.117; 0.00956
1024.51; 1486.458;  212.150; 1465.117;-0.00734
1025.06; 1434.125;  200.483; 1401.117;-0.01178
1025.60; 1406.125;  198.817; 1340.783;-0.02416
1026.15; 1357.125;  181.150; 1307.783;-0.01862
1026.70; 1335.792;  185.483; 1284.783;-0.01970
1027.24; 1309.125;  195.483; 1279.783;-0.01160
1027.79; 1304.792;  200.483; 1270.450;-0.01372
1028.33; 1283.458;  197.483; 1252.450;-0.01258
1028.88; 1256.458;  188.817; 1215.450;-0.01701
1029.42; 1227.125;  208.150; 1198.450;-0.01240
1029.97; 1209.792;  197.817; 1156.450;-0.02352
1030.51; 1176.125;  190.150; 1127.117;-0.02214
1031.06; 1150.792;  182.817; 1088.783;-0.02875
1031.61; 1131.125;  192.483; 1063.117;-0.03266
1032.15; 1131.792;  210.150; 1050.450;-0.04013
1032.70; 1104.458;  202.817; 1024.117;-0.04053
1033.24; 1079.125;  206.483; 1018.117;-0.03148
1033.79; 1053.125;  200.817; 1020.450;-0.01698
1034.33; 1044.125;  199.817; 1016.450;-0.01447
1034.88; 1021.125;  201.817; 1008.783;-0.00659
1035.42; 1021.458;  202.817;  979.450;-0.02288
1035.97;  987.458;  204.483;  950.450;-0.02103
1036.51;  984.458;  206.483;  931.450;-0.03065
1037.06;  969.458;  200.817;  944.117;-0.01456
1037.60;  981.792;  207.150;  948.783;-0.01891
1038.14;  978.458;  204.150;  928.783;-0.02880
1038.69;  978.125;  222.150;  927.783;-0.02993
1039.23;  984.792;  234.483;  935.783;-0.02934
1039.78;  992.792;  235.150;  948.783;-0.02599
1040.32;  967.458;  224.483;  915.783;-0.03131
1040.87;  937.125;  208.483;  887.117;-0.03088
1041.41;  911.458;  198.150;  864.117;-0.02982
1041.96;  904.792;  200.817;  882.783;-0.01379
1042.50;  904.125;  197.817;  893.117;-0.00682
1043.04;  921.458;  213.817;  899.117;-0.01393
1043.59;  924.458;  217.150;  867.450;-0.03650
1044.13;  914.792;  212.483;  869.450;-0.02898
1044.68;  874.125;  205.817;  862.117;-0.00787
1045.22;  865.792;  199.150;  873.783; 0.00518
1045.76;  849.792;  201.817;  869.450; 0.01298
1046.31;  837.458;  193.483;  861.783; 0.01610
1046.85;  839.125;  200.483;  842.117; 0.00203
1047.40;  838.125;  202.483;  813.783;-0.01696
1047.94;  845.125;  215.150;  808.783;-0.02581
1048.48;  829.792;  211.150;  810.117;-0.01404
1049.03;  819.125;  214.483;  793.450;-0.01884
1049.57;  835.458;  229.150;  787.117;-0.03609
1050.11;  829.792;  222.817;  774.117;-0.04178
1050.66;  830.458;  218.483;  779.117;-0.03805
1051.20;  802.792;  206.483;  794.450;-0.00612
1051.74;  774.125;  200.817;  788.117; 0.01047
1052.29;  740.458;  200.150;  780.783; 0.03126
1052.83;  731.458;  199.150;  748.117; 0.01338
1053.37;  747.792;  224.817;  744.783;-0.00251
1053.92;  770.458;  234.150;  739.783;-0.02558
1054.46;  774.792;  236.483;  734.117;-0.03412
1055.00;  761.125;  231.483;  739.117;-0.01843
1055.55;  773.458;  230.817;  738.117;-0.02925
1056.09;  750.458;  223.817;  747.783;-0.00221
1056.63;  735.125;  215.817;  711.783;-0.01997
1057.17;  704.458;  216.483;  709.117; 0.00413
1057.72;  705.458;  225.150;  697.450;-0.00730
1058.26;  713.792;  223.483;  705.783;-0.00715
1058.80;  717.792;  229.817;  700.450;-0.01571
1059.35;  706.125;  230.483;  686.450;-0.01835
1059.89;  686.125;  230.150;  672.450;-0.01322
1060.43;  663.792;  227.817;  654.783;-0.00907
1060.97;  658.125;  223.817;  667.117; 0.00890
1061.52;  669.458;  231.150;  682.450; 0.01269
1062.06;  659.792;  231.483;  671.450; 0.01166
1062.60;  648.458;  236.483;  658.450; 0.01041
1063.14;  631.792;  232.483;  640.783; 0.00967
1063.69;  638.792;  216.483;  640.117; 0.00136
1064.23;  638.458;  208.817;  619.783;-0.01930
1064.77;  629.792;  200.483;  598.450;-0.03292
1065.31;  618.792;  201.817;  577.450;-0.04535
1065.85;  622.458;  206.483;  567.117;-0.06200
1066.40;  616.458;  205.150;  579.450;-0.04095
1066.94;  615.125;  217.817;  579.117;-0.04126
1067.48;  603.458;  209.150;  587.783;-0.01762
1068.02;  602.125;  233.817;  562.450;-0.04950
1068.56;  586.458;  216.817;  564.783;-0.02624
1069.10;  575.458;  212.817;  549.783;-0.03189
1069.65;  569.458;  195.817;  566.450;-0.00351
1070.19;  571.792;  208.817;  566.783;-0.00603
1070.73;  578.458;  223.817;  582.783; 0.00526
1071.27;  578.458;  215.817;  567.117;-0.01380
1071.81;  570.125;  207.150;  562.117;-0.00969
1072.35;  575.125;  201.817;  549.117;-0.03136
1072.90;  563.125;  197.150;  546.783;-0.01984
1073.44;  547.792;  202.817;  540.117;-0.00977
1073.98;  534.458;  206.150;  531.450;-0.00400
1074.52;  560.125;  224.483;  538.783;-0.02853
1075.06;  572.125;  218.483;  542.450;-0.03806
1075.60;  564.125;  207.483;  531.450;-0.04173
1076.14;  540.458;  204.817;  514.117;-0.03550
1076.68;  519.125;  207.150;  504.450;-0.02092
1077.22;  523.125;  225.817;  504.783;-0.02765
1077.76;  511.792;  214.817;  498.117;-0.02047
1078.31;  526.458;  229.817;  499.783;-0.04092
1078.85;  510.792;  226.483;  517.117; 0.00956
1079.39;  505.458;  243.817;  525.450; 0.03198
1079.93;  502.125;  237.817;  507.783; 0.00920
1080.47;  508.458;  227.483;  476.450;-0.05253
1081.01;  520.458;  216.150;  474.783;-0.07063
1081.55;  526.458;  208.483;  488.783;-0.05477
1082.09;  522.458;  205.817;  488.783;-0.04883
1082.63;  519.458;  210.150;  496.450;-0.03357
1083.17;  522.792;  221.150;  500.783;-0.03290
1083.71;  522.125;  228.817;  501.450;-0.03175
1084.25;  508.458;  224.483;  471.117;-0.06123
1084.79;  487.125;  214.483;  446.450;-0.07017
1085.33;  478.125;  202.817;  450.783;-0.04543
1085.87;  489.125;  199.483;  468.450;-0.03216
1086.41;  495.458;  214.483;  471.450;-0.03879
1086.95;  506.792;  222.150;  467.117;-0.06519
1087.49;  505.458;  225.817;  454.783;-0.08683
1088.03;  499.458;  216.817;  454.117;-0.07594
1088.57;  482.125;  219.817;  450.783;-0.05526
1089.11;  474.125;  222.150;  448.117;-0.04731
1089.65;  489.125;  233.150;  458.783;-0.05479
1090.19;  479.792;  238.483;  468.117;-0.02154
1090.73;  478.125;  240.483;  471.783;-0.01175
1091.27;  457.458;  238.817;  466.117; 0.01687
1091.81;  470.125;  238.483;  458.117;-0.02312
1092.35;  476.792;  247.483;  461.450;-0.03007
1092.89;  482.125;  232.150;  457.450;-0.04514
1093.43;  483.458;  223.817;  445.783;-0.06809
1093.97;  453.125;  210.150;  441.117;-0.02201
1094.51;  456.125;  208.483;  440.450;-0.02840
1095.04;  454.792;  218.483;  442.783;-0.02265
1095.58;  484.792;  238.817;  436.783;-0.09430
1096.12;  476.125;  242.817;  428.783;-0.09850
1096.66;  466.125;  239.817;  430.450;-0.07450
1097.20;  446.458;  235.817;  449.450; 0.00612
1097.74;  450.458;  246.817;  456.783; 0.01328
1098.28;  447.458;  235.817;  457.117; 0.01938
1098.82;  444.458;  230.483;  453.117; 0.01723
1099.36;  440.792;  228.150;  446.450; 0.01141
1099.89;  433.792;  230.150;  447.450; 0.02819

