
Integration time [ms]:   0.300
Averaging Nr. [scans]: 1
Smoothing Nr. [pixels]: 1
Data measured with spectrometer [name]: 1906252U1
Wave   ;Sample   ;Dark     ;Reference;Absorbance
[nm]   ;[counts] ;[counts] ;[counts] ;[A.U]

 161.30;  273.569;  271.207;  271.637; 0.00000
 161.90;  267.275;  265.524;  261.712; 0.00000
 162.51;  263.315;  259.038;  260.433;-0.48682
 163.11;  265.725;  265.693;  251.834; 0.00000
 163.71;  272.690;  276.696;  266.803; 0.00000
 164.31;  279.698;  294.270;  273.488; 0.00000
 164.91;  278.626;  288.393;  287.410; 0.00000
 165.52;  279.822;  277.299;  279.261;-0.10929
 166.12;  274.964;  271.979;  273.718;-0.23476
 166.72;  266.338;  272.971;  259.755; 0.00000
 167.32;  261.286;  271.656;  271.040; 0.00000
 167.93;  263.776;  261.266;  267.518; 0.39639
 168.53;  260.548;  254.112;  260.296;-0.01736
 169.13;  270.506;  264.427;  257.261; 0.00000
 169.73;  275.930;  271.677;  266.351; 0.00000
 170.33;  296.737;  291.614;  320.561; 0.75205
 170.94;  297.456;  317.756;  347.746; 5.00000
 171.54;  312.862;  335.278;  387.239; 5.00000
 172.14;  323.487;  338.926;  375.538; 5.00000
 172.74;  340.473;  324.358;  373.181; 0.48139
 173.34;  337.188;  319.589;  355.569; 0.31057
 173.95;  339.879;  309.596;  343.923; 0.05443
 174.55;  323.850;  318.289;  355.228; 0.82227
 175.15;  319.443;  320.689;  367.155; 5.00000
 175.75;  308.158;  322.370;  380.195; 5.00000
 176.35;  317.316;  332.415;  382.036; 5.00000
 176.95;  331.836;  327.740;  392.907; 1.20165
 177.56;  343.615;  327.608;  398.355; 0.64541
 178.16;  349.900;  316.738;  399.298; 0.39612
 178.76;  342.436;  316.306;  398.487; 0.49764
 179.36;  344.971;  310.874;  401.343; 0.42379
 179.96;  344.448;  304.800;  395.813; 0.36088
 180.56;  355.265;  308.938;  392.969; 0.25860
 181.17;  371.063;  318.009;  403.448; 0.20694
 181.77;  376.123;  318.897;  417.181; 0.23489
 182.37;  361.056;  306.653;  404.111; 0.25320
 182.97;  358.400;  319.309;  413.789; 0.38326
 183.57;  367.894;  323.525;  427.944; 0.37171
 184.17;  403.726;  336.736;  473.104; 0.30871
 184.78;  424.213;  316.624;  484.587; 0.19344
 185.38;  438.121;  315.012;  504.833; 0.18805
 185.98;  446.914;  315.783;  504.638; 0.15842
 186.58;  438.387;  316.598;  510.449; 0.20186
 187.18;  442.945;  313.002;  491.678; 0.13831
 187.78;  462.667;  324.256;  526.070; 0.16378
 188.38;  483.758;  331.840;  541.159; 0.13920
 188.98;  482.131;  337.804;  574.199; 0.21429
 189.59;  471.474;  332.575;  567.529; 0.22828
 190.19;  468.006;  326.870;  580.708; 0.25492
 190.79;  463.229;  326.914;  573.939; 0.25820
 191.39;  464.898;  317.159;  564.285; 0.22342
 191.99;  468.320;  322.498;  545.363; 0.18422
 192.59;  456.892;  317.307;  539.929; 0.20273
 193.19;  439.662;  313.765;  525.712; 0.22621
 193.79;  435.226;  325.164;  530.280; 0.27036
 194.39;  447.621;  328.250;  517.658; 0.20050
 195.00;  450.118;  327.216;  511.139; 0.17508
 195.60;  426.703;  305.566;  480.732; 0.16017
 196.20;  417.768;  304.088;  469.473; 0.16281
 196.80;  395.623;  305.278;  453.989; 0.21644
 197.40;  398.812;  313.686;  455.186; 0.22070
 198.00;  380.742;  320.693;  452.457; 0.34129
 198.60;  368.903;  317.270;  442.943; 0.38631
 199.20;  353.815;  312.435;  427.513; 0.44420
 199.80;  361.735;  303.957;  416.753; 0.29053
 200.40;  354.180;  299.492;  396.868; 0.25056
 201.00;  335.069;  293.841;  371.434; 0.27463
 201.60;  321.034;  292.845;  340.403; 0.22714
 202.21;  321.536;  298.995;  352.240; 0.37330
 202.81;  323.856;  303.760;  367.883; 0.50390
 203.41;  318.571;  301.801;  377.921; 0.65696
 204.01;  315.594;  296.447;  373.611; 0.60531
 204.61;  320.121;  287.965;  374.799; 0.43143
 205.21;  326.995;  280.528;  391.328; 0.37739
 205.81;  335.574;  276.000;  394.567; 0.29891
 206.41;  328.334;  281.190;  389.667; 0.36190
 207.01;  317.506;  291.585;  373.516; 0.49981
 207.61;  299.537;  290.832;  349.221; 0.82655
 208.21;  299.743;  294.007;  340.088; 0.90491
 208.81;  302.370;  285.376;  350.048; 0.58044
 209.41;  306.928;  292.971;  355.294; 0.64986
 210.01;  301.787;  286.985;  361.835; 0.70386
 210.61;  302.280;  290.534;  351.990; 0.71866
 211.21;  307.522;  293.399;  356.219; 0.64818
 211.81;  303.245;  300.157;  352.258; 1.22717
 212.41;  293.832;  301.896;  344.513; 5.00000
 213.01;  293.595;  296.332;  351.625; 5.00000
 213.61;  297.306;  285.263;  357.339; 0.77703
 214.21;  309.722;  282.939;  368.411; 0.50396
 214.81;  297.042;  278.704;  361.387; 0.65407
 215.41;  303.969;  282.466;  362.645; 0.57156
 216.01;  304.511;  278.247;  362.189; 0.50461
 216.61;  309.108;  287.920;  357.792; 0.51823
 217.21;  306.698;  290.599;  357.391; 0.61791
 217.81;  301.779;  297.221;  367.800; 1.18990
 218.41;  318.729;  301.628;  379.081; 0.65602
 219.01;  313.477;  307.801;  388.505; 1.15285
 219.61;  309.545;  301.739;  384.906; 1.02750
 220.21;  293.493;  297.568;  378.507; 5.00000
 220.81;  306.037;  283.737;  372.713; 0.60096
 221.41;  321.681;  284.091;  376.024; 0.38839
 222.01;  327.044;  280.426;  372.049; 0.29345
 222.61;  328.770;  298.953;  367.451; 0.36122
 223.21;  320.068;  301.813;  357.103; 0.48127
 223.81;  319.313;  301.952;  360.676; 0.52923
 224.41;  307.282;  281.875;  343.618; 0.38563
 225.01;  303.924;  269.317;  340.250; 0.31169
 225.61;  305.361;  274.108;  341.033; 0.33070
 226.21;  298.565;  273.112;  349.918; 0.47966
 226.81;  301.484;  286.490;  349.175; 0.62125
 227.41;  302.259;  284.059;  344.282; 0.51969
 228.01;  321.561;  302.172;  351.241; 0.40326
 228.61;  329.809;  306.727;  360.474; 0.36706
 229.21;  332.368;  303.825;  362.700; 0.31443
 229.81;  331.783;  308.998;  372.791; 0.44712
 230.41;  342.054;  299.055;  383.396; 0.29258
 231.01;  340.929;  300.808;  405.942; 0.41837
 231.61;  332.081;  287.307;  401.095; 0.40508
 232.21;  316.485;  300.328;  383.489; 0.71155
 232.81;  301.602;  296.307;  370.928; 1.14899
 233.41;  301.003;  302.578;  372.995; 5.00000
 234.00;  302.248;  298.240;  379.918; 1.30912
 234.60;  305.280;  290.487;  363.623; 0.69407
 235.20;  313.251;  295.152;  359.264; 0.54929
 235.80;  306.754;  295.330;  365.432; 0.78790
 236.40;  321.039;  302.765;  379.044; 0.62058
 237.00;  313.143;  303.584;  384.824; 0.92934
 237.60;  311.958;  294.000;  377.651; 0.66821
 238.20;  304.524;  295.121;  389.214; 1.00029
 238.80;  297.992;  274.112;  389.668; 0.68476
 239.40;  311.744;  279.177;  403.402; 0.58144
 240.00;  322.647;  284.599;  402.640; 0.49169
 240.59;  338.969;  298.133;  401.312; 0.40254
 241.19;  338.064;  297.989;  399.745; 0.40470
 241.79;  323.036;  288.710;  384.715; 0.44666
 242.39;  310.902;  292.222;  383.909; 0.69093
 242.99;  294.443;  286.642;  375.121; 1.05468
 243.59;  296.738;  289.230;  388.763; 1.12241
 244.19;  294.210;  286.160;  385.560; 1.09162
 244.79;  285.983;  287.511;  384.652; 5.00000
 245.39;  291.221;  287.293;  395.554; 1.44032
 245.98;  294.452;  273.053;  391.453; 0.74296
 246.58;  293.613;  274.487;  389.290; 0.77831
 247.18;  303.011;  285.342;  384.364; 0.74850
 247.78;  315.749;  295.696;  398.758; 0.71090
 248.38;  353.158;  288.656;  421.162; 0.31266
 248.98;  342.965;  277.356;  419.988; 0.33725
 249.58;  332.315;  265.673;  430.671; 0.39373
 250.17;  321.834;  275.285;  426.842; 0.51266
 250.77;  333.625;  283.143;  431.967; 0.46954
 251.37;  338.400;  286.929;  425.089; 0.42882
 251.97;  329.794;  270.293;  429.805; 0.42827
 252.57;  329.549;  265.298;  436.882; 0.42660
 253.17;  321.161;  272.929;  449.172; 0.56278
 253.77;  334.275;  284.186;  466.282; 0.56055
 254.36;  335.450;  295.474;  468.774; 0.63700
 254.96;  337.574;  295.333;  480.567; 0.64199
 255.56;  330.975;  288.604;  484.301; 0.66451
 256.16;  328.193;  278.462;  506.509; 0.66140
 256.76;  327.125;  277.524;  496.109; 0.64414
 257.36;  324.957;  276.735;  508.603; 0.68200
 257.95;  305.738;  264.992;  503.713; 0.76781
 258.55;  312.436;  264.239;  518.084; 0.72155
 259.15;  312.811;  260.564;  510.454; 0.67969
 259.75;  327.019;  269.345;  523.998; 0.64497
 260.35;  329.975;  267.461;  538.318; 0.63676
 260.94;  307.729;  268.819;  539.764; 0.84282
 261.54;  312.076;  275.530;  547.771; 0.87212
 262.14;  317.751;  279.723;  553.422; 0.85718
 262.74;  343.512;  296.084;  592.169; 0.79538
 263.34;  326.274;  285.302;  604.600; 0.89170
 263.93;  306.548;  271.414;  619.201; 0.99559
 264.53;  309.796;  269.158;  628.783; 0.94692
 265.13;  314.232;  270.950;  628.566; 0.91710
 265.73;  333.472;  275.426;  648.466; 0.80799
 266.33;  351.746;  278.566;  678.397; 0.73748
 266.92;  350.365;  275.029;  689.673; 0.74067
 267.52;  341.748;  279.954;  705.726; 0.83823
 268.12;  314.285;  273.264;  717.281; 1.03440
 268.72;  332.501;  281.951;  749.175; 0.96581
 269.31;  342.828;  293.596;  782.505; 0.99698
 269.91;  350.350;  296.813;  783.686; 0.95876
 270.51;  354.763;  298.884;  823.747; 0.97280
 271.11;  355.043;  296.018;  844.685; 0.96827
 271.70;  345.034;  281.274;  877.686; 0.97100
 272.30;  345.921;  270.568;  887.924; 0.91344
 272.90;  357.080;  264.784;  909.412; 0.84412
 273.50;  361.204;  274.785;  916.521; 0.87075
 274.09;  355.212;  285.359;  947.539; 0.97679
 274.69;  345.015;  293.425;  961.690; 1.11238
 275.29;  352.373;  297.126; 1011.041; 1.11134
 275.89;  360.521;  301.162; 1057.168; 1.10503
 276.48;  381.070;  306.441; 1108.365; 1.03123
 277.08;  395.045;  303.217; 1149.330; 0.96445
 277.68;  392.636;  300.562; 1156.928; 0.96852
 278.28;  388.771;  297.934; 1188.748; 0.99152
 278.87;  402.900;  305.120; 1219.213; 0.97074
 279.47;  407.384;  316.402; 1279.019; 1.02450
 280.07;  425.571;  311.564; 1306.537; 0.94088
 280.66;  431.502;  305.599; 1329.806; 0.91035
 281.26;  454.306;  299.502; 1356.605; 0.83433
 281.86;  458.500;  299.353; 1408.460; 0.84318
 282.46;  462.368;  289.111; 1464.667; 0.83155
 283.05;  475.552;  270.001; 1525.842; 0.78601
 283.65;  477.626;  269.267; 1577.248; 0.79779
 284.25;  478.715;  276.537; 1628.707; 0.82530
 284.84;  496.812;  297.639; 1660.819; 0.83532
 285.44;  526.694;  304.585; 1722.349; 0.80504
 286.04;  552.648;  306.626; 1767.304; 0.77358
 286.63;  562.214;  299.604; 1827.551; 0.76480
 287.23;  565.583;  285.934; 1878.582; 0.75551
 287.83;  578.316;  285.987; 1956.635; 0.75701
 288.42;  597.152;  282.947; 2012.456; 0.74071
 289.02;  626.376;  281.018; 2081.351; 0.71708
 289.62;  650.041;  274.153; 2105.373; 0.68768
 290.21;  670.882;  278.965; 2173.882; 0.68440
 290.81;  704.181;  296.139; 2171.832; 0.66246
 291.41;  711.294;  301.675; 2217.279; 0.66993
 292.00;  714.604;  287.695; 2273.257; 0.66755
 292.60;  717.597;  266.816; 2355.570; 0.66592
 293.20;  756.974;  269.053; 2441.953; 0.64869
 293.79;  805.211;  275.331; 2498.541; 0.62280
 294.39;  828.456;  284.326; 2544.463; 0.61843
 294.99;  839.764;  280.435; 2588.095; 0.61550
 295.58;  833.312;  284.687; 2619.961; 0.62906
 296.18;  846.923;  271.100; 2672.236; 0.62013
 296.78;  884.544;  267.474; 2741.524; 0.60307
 297.37;  946.260;  256.039; 2819.912; 0.56991
 297.97;  997.125;  255.858; 2927.442; 0.55679
 298.57; 1029.570;  262.727; 2989.557; 0.55095
 299.16; 1047.785;  278.359; 3083.789; 0.56183
 299.76; 1071.694;  281.775; 3176.366; 0.56400
 300.35; 1116.037;  281.214; 3269.362; 0.55381
 300.95; 1160.798;  278.404; 3324.462; 0.53808
 301.55; 1212.832;  287.229; 3346.846; 0.51924
 302.14; 1236.677;  278.314; 3431.366; 0.51720
 302.74; 1284.841;  277.164; 3537.862; 0.50999
 303.33; 1309.228;  277.506; 3665.575; 0.51639
 303.93; 1362.931;  284.053; 3763.621; 0.50855
 304.53; 1393.048;  290.889; 3809.743; 0.50416
 305.12; 1464.719;  285.666; 3889.067; 0.48518
 305.72; 1522.404;  304.345; 3962.749; 0.47762
 306.31; 1553.142;  292.556; 4062.826; 0.47580
 306.91; 1570.220;  290.122; 4183.574; 0.48309
 307.51; 1595.386;  280.000; 4278.734; 0.48287
 308.10; 1655.370;  295.710; 4394.048; 0.47918
 308.70; 1690.052;  291.190; 4468.751; 0.47515
 309.29; 1725.108;  287.634; 4547.826; 0.47183
 309.89; 1775.972;  264.902; 4638.675; 0.46157
 310.48; 1865.409;  273.673; 4739.754; 0.44806
 311.08; 1914.437;  268.620; 4876.118; 0.44708
 311.68; 1947.018;  273.221; 4959.384; 0.44711
 312.27; 1969.918;  278.703; 5074.278; 0.45264
 312.87; 2049.498;  271.869; 5225.848; 0.44511
 313.46; 2130.328;  276.691; 5385.013; 0.44025
 314.06; 2196.205;  276.193; 5529.885; 0.43716
 314.65; 2255.219;  282.238; 5632.559; 0.43326
 315.25; 2322.922;  283.262; 5774.255; 0.43009
 315.85; 2386.876;  277.637; 5914.876; 0.42694
 316.44; 2450.939;  287.913; 6071.938; 0.42717
 317.04; 2484.325;  295.255; 6216.984; 0.43219
 317.63; 2563.339;  310.823; 6400.341; 0.43192
 318.23; 2614.277;  298.737; 6546.296; 0.43106
 318.82; 2683.206;  293.221; 6674.883; 0.42654
 319.42; 2735.209;  273.276; 6781.545; 0.42219
 320.01; 2835.960;  280.055; 6929.646; 0.41525
 320.61; 2918.316;  290.511; 7164.652; 0.41763
 321.20; 2985.297;  285.758; 7272.939; 0.41301
 321.80; 3011.060;  292.860; 7497.718; 0.42334
 322.39; 3093.186;  275.154; 7636.540; 0.41701
 322.99; 3132.862;  275.755; 7857.556; 0.42385
 323.58; 3238.524;  286.597; 7977.531; 0.41587
 324.18; 3302.348;  287.901; 8124.673; 0.41493
 324.77; 3396.345;  292.485; 8318.013; 0.41257
 325.37; 3446.830;  278.984; 8442.167; 0.41110
 325.96; 3504.963;  276.253; 8588.958; 0.41071
 326.56; 3557.431;  298.768; 8771.095; 0.41496
 327.15; 3651.107;  300.036; 8947.778; 0.41172
 327.75; 3738.529;  300.925; 9129.536; 0.40964
 328.34; 3847.845;  272.723; 9291.838; 0.40187
 328.94; 3886.255;  266.072; 9447.905; 0.40420
 329.53; 3958.560;  277.765; 9658.876; 0.40631
 330.13; 4023.799;  293.098; 9872.460; 0.40955
 330.72; 4083.552;  297.428;10112.576; 0.41370
 331.32; 4165.378;  296.807;10347.750; 0.41466
 331.91; 4255.029;  286.021;10578.045; 0.41382
 332.51; 4399.773;  290.846;10832.428; 0.40918
 333.10; 4514.367;  280.941;11112.686; 0.40801
 333.69; 4601.213;  268.720;11343.870; 0.40761
 334.29; 4618.978;  259.020;11372.294; 0.40636
 334.88; 4631.248;  263.526;11404.218; 0.40666
 335.48; 4639.866;  274.151;11347.513; 0.40422
 336.07; 4653.387;  277.361;11521.065; 0.40983
 336.67; 4682.091;  271.793;11561.792; 0.40823
 337.26; 4754.372;  270.478;11724.744; 0.40731
 337.86; 4848.058;  274.661;11795.073; 0.40123
 338.45; 4892.548;  285.081;11996.201; 0.40514
 339.04; 4907.062;  280.248;12122.714; 0.40816
 339.64; 4972.845;  279.247;12324.855; 0.40932
 340.23; 5018.543;  276.541;12444.594; 0.40926
 340.83; 5127.282;  283.446;12579.002; 0.40456
 341.42; 5165.744;  284.034;12728.085; 0.40639
 342.02; 5279.719;  280.810;12860.717; 0.40080
 342.61; 5236.801;  285.029;12994.842; 0.40938
 343.20; 5291.303;  280.703;13173.363; 0.41045
 343.80; 5365.140;  275.024;13326.514; 0.40893
 344.39; 5519.415;  277.525;13574.777; 0.40427
 344.99; 5587.556;  284.701;13698.586; 0.40304
 345.58; 5604.302;  281.629;13941.331; 0.40931
 346.17; 5664.254;  272.425;14086.941; 0.40860
 346.77; 5701.155;  263.601;14425.499; 0.41572
 347.36; 5823.735;  267.766;14640.403; 0.41278
 347.96; 5889.408;  271.456;14918.073; 0.41616
 348.55; 6037.405;  272.039;15018.413; 0.40786
 349.14; 6039.251;  269.152;15148.264; 0.41139
 349.74; 6152.966;  282.193;15379.635; 0.41021
 350.33; 6201.951;  292.264;15619.281; 0.41389
 350.92; 6298.083;  292.029;15990.758; 0.41728
 351.52; 6327.034;  276.988;16197.719; 0.42020
 352.11; 6425.016;  277.642;16449.038; 0.42006
 352.70; 6548.112;  293.221;16652.467; 0.41754
 353.30; 6701.675;  299.069;16923.354; 0.41439
 353.89; 6771.142;  289.556;17199.826; 0.41647
 354.49; 6871.433;  295.537;17471.125; 0.41696
 355.08; 6914.553;  303.789;17648.240; 0.41891
 355.67; 7001.859;  306.509;17850.877; 0.41836
 356.27; 7034.070;  292.678;18013.082; 0.41972
 356.86; 7137.703;  288.376;18230.048; 0.41822
 357.45; 7236.652;  297.756;18507.331; 0.41901
 358.05; 7328.943;  297.214;18684.613; 0.41746
 358.64; 7382.626;  292.504;18894.298; 0.41890
 359.23; 7442.484;  289.300;19081.825; 0.41949
 359.83; 7507.379;  289.121;19433.380; 0.42361
 360.42; 7659.591;  293.174;19722.600; 0.42120
 361.01; 7784.153;  287.355;19981.487; 0.41946
 361.61; 7860.879;  287.502;20183.522; 0.41948
 362.20; 7870.410;  294.987;20496.718; 0.42598
 362.79; 7874.307;  302.910;20634.303; 0.42899
 363.38; 7970.507;  301.613;20815.514; 0.42732
 363.98; 8074.053;  289.171;20943.715; 0.42376
 364.57; 8158.155;  277.744;21176.149; 0.42356
 365.16; 8278.821;  288.573;21351.502; 0.42096
 365.76; 8339.598;  293.720;21537.287; 0.42165
 366.35; 8403.868;  294.920;21731.542; 0.42219
 366.94; 8421.134;  286.459;21913.791; 0.42466
 367.53; 8415.472;  286.426;22067.466; 0.42804
 368.13; 8521.819;  291.994;22246.489; 0.42613
 368.72; 8550.952;  285.482;22413.295; 0.42767
 369.31; 8659.348;  292.281;22597.374; 0.42583
 369.91; 8738.842;  283.382;22746.877; 0.42434
 370.50; 8832.381;  291.699;22820.059; 0.42124
 371.09; 8814.253;  278.017;22946.909; 0.42416
 371.68; 8815.006;  286.967;23106.324; 0.42745
 372.28; 8939.257;  294.984;23340.584; 0.42586
 372.87; 9048.504;  297.367;23443.502; 0.42241
 373.46; 9100.939;  297.723;23614.255; 0.42302
 374.05; 9080.851;  287.889;23758.158; 0.42638
 374.65; 9155.519;  290.440;23950.173; 0.42633
 375.24; 9222.360;  272.918;24146.349; 0.42612
 375.83; 9328.709;  275.848;24331.370; 0.42443
 376.42; 9416.550;  273.516;24515.563; 0.42348
 377.02; 9454.154;  293.907;24527.502; 0.42251
 377.61; 9475.325;  288.112;24762.668; 0.42553
 378.20; 9577.787;  297.747;24944.118; 0.42420
 378.79; 9748.890;  297.015;25086.217; 0.41874
 379.38; 9883.125;  282.191;25204.109; 0.41427
 379.98; 9935.162;  267.243;25344.469; 0.41395
 380.57; 9971.086;  272.112;25606.751; 0.41699
 381.16;10030.115;  291.609;25727.129; 0.41695
 381.75;10138.137;  289.589;25767.151; 0.41279
 382.35;10212.252;  283.703;25937.612; 0.41227
 382.94;10340.674;  271.231;26182.039; 0.41048
 383.53;10442.731;  279.541;26558.760; 0.41258
 384.12;10546.278;  269.432;26865.627; 0.41296
 384.71;10663.341;  284.069;27028.687; 0.41107
 385.31;10771.526;  287.699;27353.893; 0.41191
 385.90;10926.398;  299.731;27598.110; 0.40974
 386.49;10991.290;  283.306;27919.987; 0.41178
 387.08;11105.582;  296.763;28085.602; 0.41009
 387.67;11247.240;  302.047;28384.267; 0.40921
 388.26;11452.056;  312.463;28670.094; 0.40580
 388.86;11635.063;  297.866;29041.131; 0.40403
 389.45;11739.885;  285.685;29324.329; 0.40401
 390.04;11894.047;  279.860;29566.863; 0.40169
 390.63;12057.158;  284.795;29878.048; 0.40033
 391.22;12170.836;  294.422;30097.179; 0.39957
 391.81;12188.297;  303.408;30368.117; 0.40306
 392.41;12205.977;  324.211;30517.642; 0.40503
 393.00;12356.400;  349.022;30747.606; 0.40341
 393.59;12535.108;  379.676;31111.212; 0.40281
 394.18;12750.490;  399.780;31505.223; 0.40114
 394.77;12923.840;  433.703;31930.599; 0.40170
 395.36;13142.524;  473.557;32244.356; 0.39929
 395.95;13326.753;  524.323;32561.017; 0.39836
 396.55;13457.071;  566.236;32856.406; 0.39879
 397.14;13582.026;  594.577;33298.717; 0.40108
 397.73;13687.324;  601.786;33627.642; 0.40206
 398.32;13916.901;  612.294;34204.404; 0.40224
 398.91;14191.440;  621.039;34614.988; 0.39881
 399.50;14501.263;  632.059;35200.379; 0.39663
 400.09;14740.743;  605.452;35675.306; 0.39463
 400.68;14983.504;  582.293;36366.134; 0.39529
 401.27;15227.642;  548.561;37014.694; 0.39519
 401.87;15562.812;  525.771;37604.957; 0.39197
 402.46;15835.954;  501.053;38119.893; 0.38972
 403.05;16136.099;  484.389;38675.942; 0.38741
 403.64;16416.965;  490.521;39240.769; 0.38616
 404.23;16718.976;  484.797;39841.080; 0.38458
 404.82;16942.267;  502.588;40438.695; 0.38547
 405.41;17208.744;  491.629;41140.816; 0.38589
 406.00;17510.960;  497.890;41752.976; 0.38469
 406.59;17741.200;  479.966;42383.807; 0.38518
 407.18;18033.501;  482.149;42943.385; 0.38368
 407.77;18165.825;  466.520;43500.038; 0.38585
 408.37;18482.108;  484.641;43973.019; 0.38316
 408.96;18643.282;  491.806;44465.898; 0.38428
 409.55;18919.341;  504.476;44970.283; 0.38286
 410.14;19105.552;  481.626;45459.452; 0.38293
 410.73;19377.910;  490.299;45905.805; 0.38103
 411.32;19580.187;  492.855;46441.730; 0.38153
 411.91;19833.049;  505.687;47060.216; 0.38179
 412.50;19935.823;  480.732;47624.639; 0.38439
 413.09;20214.290;  484.505;48110.411; 0.38272
 413.68;20370.155;  482.467;48573.257; 0.38348
 414.27;20511.483;  487.472;48936.919; 0.38374
 414.86;20685.214;  462.470;49236.309; 0.38235
 415.45;20872.008;  452.555;49687.411; 0.38223
 416.04;21141.021;  462.743;50083.734; 0.38015
 416.63;21290.898;  468.551;50542.275; 0.38108
 417.22;21402.979;  461.867;50754.683; 0.38051
 417.81;21561.119;  462.159;51068.477; 0.37994
 418.40;21687.325;  476.694;51393.675; 0.38031
 418.99;21797.185;  477.832;51737.830; 0.38100
 419.58;21907.774;  462.218;51969.382; 0.38053
 420.17;22017.127;  452.952;52248.392; 0.38056
 420.76;22172.250;  458.593;52499.836; 0.37961
 421.35;22274.182;  472.988;53005.769; 0.38195
 421.94;22298.251;  474.287;53203.501; 0.38312
 422.53;22331.064;  469.601;53402.299; 0.38404
 423.12;22398.273;  471.552;53493.823; 0.38348
 423.71;22498.332;  463.366;53670.857; 0.38286
 424.30;22597.345;  471.573;53819.883; 0.38222
 424.89;22572.813;  477.611;53888.037; 0.38333
 425.48;22521.496;  477.854;53974.356; 0.38504
 426.07;22436.868;  465.438;53940.695; 0.38629
 426.66;22342.699;  460.097;54040.507; 0.38891
 427.25;22276.645;  453.014;53995.096; 0.38977
 427.84;22271.279;  450.549;53912.043; 0.38917
 428.43;22180.014;  452.848;53711.442; 0.38939
 429.02;22065.796;  457.772;53797.552; 0.39244
 429.61;21940.040;  448.720;53826.107; 0.39509
 430.20;21839.723;  425.820;53758.443; 0.39630
 430.79;21789.858;  437.001;53531.580; 0.39559
 431.38;21688.167;  442.471;53315.543; 0.39596
 431.97;21520.744;  451.391;53001.434; 0.39692
 432.55;21321.987;  445.807;52690.011; 0.39839
 433.14;21119.055;  441.412;52704.411; 0.40269
 433.73;21001.725;  432.971;52655.054; 0.40465
 434.32;20877.293;  424.624;52606.263; 0.40677
 434.91;20709.435;  423.161;52233.737; 0.40722
 435.50;20572.572;  418.064;51971.869; 0.40789
 436.09;20315.024;  418.432;51687.970; 0.41108
 436.68;20155.374;  422.559;51624.303; 0.41410
 437.27;20052.878;  439.214;51661.122; 0.41690
 437.86;19902.669;  433.576;51508.561; 0.41886
 438.45;19756.431;  436.794;51330.326; 0.42066
 439.04;19473.408;  419.148;51043.637; 0.42437
 439.62;19322.762;  412.025;51000.963; 0.42735
 440.21;19143.526;  413.441;50885.373; 0.43051
 440.80;18977.356;  430.263;51024.538; 0.43583
 441.39;18901.968;  449.560;51081.161; 0.43837
 441.98;18829.781;  447.874;51020.625; 0.43953
 442.57;18804.408;  436.530;50797.219; 0.43803
 443.16;18657.121;  425.660;50702.578; 0.44055
 443.75;18398.806;  431.481;50788.909; 0.44758
 444.33;18241.947;  435.018;50969.383; 0.45300
 444.92;18123.912;  440.355;50892.685; 0.45531
 445.51;18015.244;  417.614;50850.986; 0.45726
 446.10;17870.830;  410.612;51056.876; 0.46250
 446.69;17734.846;  404.712;51275.545; 0.46767
 447.28;17661.369;  420.929;51457.726; 0.47134
 447.87;17586.366;  412.657;51329.383; 0.47200
 448.45;17499.409;  413.036;51412.748; 0.47492
 449.04;17429.982;  390.874;51445.980; 0.47659
 449.63;17273.635;  386.972;51646.289; 0.48223
 450.22;17157.818;  381.501;51835.467; 0.48672
 450.81;16994.569;  386.090;52100.884; 0.49328
 451.40;16881.158;  391.666;52058.120; 0.49600
 451.98;16721.459;  398.229;52052.065; 0.50030
 452.57;16621.867;  403.856;52211.469; 0.50440
 453.16;16499.754;  401.626;52273.023; 0.50815
 453.75;16422.112;  391.994;52359.708; 0.51080
 454.34;16276.101;  388.814;52215.013; 0.51350
 454.93;16273.800;  395.232;52494.699; 0.51602
 455.51;16114.997;  391.805;52615.216; 0.52132
 456.10;16027.905;  402.670;52907.445; 0.52637
 456.69;15778.511;  396.116;53041.712; 0.53434
 457.28;15719.670;  403.304;53288.203; 0.53818
 457.87;15647.475;  395.902;53216.666; 0.53949
 458.45;15615.864;  396.108;53304.691; 0.54112
 459.04;15573.573;  388.965;53401.373; 0.54297
 459.63;15425.692;  395.666;53676.141; 0.54961
 460.22;15244.690;  396.420;53639.128; 0.55458
 460.80;15122.035;  400.600;53692.823; 0.55871
 461.39;15173.434;  392.483;53895.895; 0.55868
 461.98;15168.680;  393.792;54364.115; 0.56263
 462.57;15181.538;  398.874;54782.941; 0.56572
 463.16;15112.222;  397.668;55197.607; 0.57103
 463.74;15147.826;  387.726;55673.212; 0.57352
 464.33;15082.383;  376.102;56213.777; 0.57942
 464.92;15029.329;  370.427;56547.398; 0.58346
 465.51;15073.315;  357.831;56911.710; 0.58469
 466.09;15101.522;  358.204;57352.888; 0.58724
 466.68;15155.096;  361.518;57898.436; 0.58987
 467.27;15154.300;  372.331;58292.638; 0.59310
 467.86;15132.729;  368.243;58560.733; 0.59565
 468.44;15126.923;  363.094;58919.922; 0.59838
 469.03;15140.489;  361.882;59322.152; 0.60093
 469.62;15118.727;  367.807;59788.037; 0.60512
 470.20;15140.043;  365.300;60231.337; 0.60766
 470.79;15018.568;  374.762;60677.863; 0.61469
 471.38;15019.541;  358.816;61146.166; 0.61766
 471.97;15020.777;  359.020;61564.389; 0.62060
 472.55;15141.406;  350.111;61933.679; 0.61946
 473.14;15181.334;  362.234;62406.602; 0.62188
 473.73;15148.291;  355.473;62971.535; 0.62663
 474.31;15115.893;  347.428;63489.444; 0.63098
 474.90;15206.042;  350.797;63899.238; 0.63123
 475.49;15291.378;  352.737;64160.914; 0.63057
 476.07;15381.441;  357.870;64473.326; 0.63019
 476.66;15366.302;  347.892;64752.829; 0.63230
 477.25;15397.831;  340.581;65000.332; 0.63289
 477.84;15297.697;  352.761;65155.193; 0.63710
 478.42;15234.790;  344.733;65155.945; 0.63875
 479.01;15066.180;  344.681;65156.001; 0.64370
 479.60;15030.696;  330.210;65156.511; 0.64442
 480.18;14973.459;  334.265;65158.257; 0.64622
 480.77;14906.361;  342.135;65159.480; 0.64840
 481.35;14965.587;  347.900;65159.373; 0.64677
 481.94;14946.400;  344.738;65159.188; 0.64727
 482.53;15025.809;  335.059;65159.923; 0.64470
 483.11;14898.603;  332.000;65160.709; 0.64841
 483.70;14883.623;  318.067;65161.719; 0.64854
 484.29;14806.244;  316.585;65163.324; 0.65083
 484.87;14779.808;  306.461;65164.542; 0.65140
 485.46;14708.869;  315.710;65164.272; 0.65374
 486.05;14710.169;  319.958;65162.920; 0.65380
 486.63;14660.834;  321.237;65162.258; 0.65531
 487.22;14587.158;  317.302;65162.909; 0.65746
 487.81;14498.632;  323.288;65164.368; 0.66032
 488.39;14452.073;  331.856;65164.474; 0.66195
 488.98;14345.325;  337.207;65163.733; 0.66537
 489.56;14208.729;  317.228;65164.794; 0.66914
 490.15;14000.656;  310.772;65166.371; 0.67555
 490.74;13866.750;  302.771;65167.454; 0.67962
 491.32;13710.090;  305.937;65168.774; 0.68476
 491.91;13613.389;  316.111;64974.057; 0.68686
 492.49;13398.975;  317.823;64712.314; 0.69220
 493.08;13228.786;  332.939;64167.133; 0.69460
 493.67;12988.870;  325.500;63724.219; 0.69953
 494.25;12890.171;  343.920;63105.848; 0.69918
 494.84;12695.416;  335.724;62474.087; 0.70135
 495.42;12573.089;  338.386;61959.759; 0.70214
 496.01;12352.983;  319.873;61399.648; 0.70552
 496.59;12178.454;  310.443;60754.114; 0.70697
 497.18;12004.489;  311.106;60078.479; 0.70852
 497.77;11818.991;  311.733;59331.632; 0.71003
 498.35;11681.163;  326.966;58841.796; 0.71211
 498.94;11602.913;  324.499;58030.218; 0.70897
 499.52;11593.887;  324.914;57567.186; 0.70583
 500.11;11506.315;  311.275;56906.600; 0.70375
 500.69;11322.625;  304.601;56449.246; 0.70720
 501.28;11151.422;  315.149;55764.708; 0.70902
 501.86;11092.184;  317.653;55155.772; 0.70668
 502.45;11043.130;  338.264;54632.693; 0.70517
 503.03;10958.423;  328.939;54106.656; 0.70409
 503.62;10845.841;  339.385;53665.090; 0.70548
 504.20;10784.058;  326.215;53123.968; 0.70317
 504.79;10743.580;  326.766;52666.148; 0.70109
 505.37;10740.959;  326.582;52358.543; 0.69864
 505.96;10707.842;  332.269;51859.105; 0.69602
 506.55;10782.584;  327.706;51491.158; 0.68964
 507.13;10871.181;  315.837;51254.709; 0.68358
 507.72;10950.876;  312.954;51138.387; 0.67922
 508.30;11027.442;  319.265;50944.634; 0.67465
 508.89;11098.624;  316.460;50626.145; 0.66895
 509.47;11249.542;  308.593;50383.056; 0.66056
 510.05;11297.358;  311.037;50305.214; 0.65807
 510.64;11454.344;  312.992;50205.541; 0.65110
 511.22;11635.618;  326.961;50242.492; 0.64482
 511.81;11871.976;  323.186;50282.527; 0.63608
 512.39;12009.727;  329.747;50266.280; 0.63098
 512.98;12138.899;  310.647;50213.110; 0.62520
 513.56;12303.758;  306.947;50200.284; 0.61898
 514.15;12511.994;  297.484;50225.841; 0.61147
 514.73;12691.157;  293.306;50310.339; 0.60577
 515.32;12962.529;  298.909;50412.714; 0.59740
 515.90;13105.290;  306.909;50529.464; 0.59374
 516.49;13312.103;  321.223;50576.262; 0.58754
 517.07;13561.654;  323.415;50501.804; 0.57869
 517.66;13836.142;  325.663;50468.951; 0.56954
 518.24;14077.300;  330.491;50581.443; 0.56294
 518.82;14138.638;  322.791;50433.118; 0.55955
 519.41;14363.439;  321.449;50483.238; 0.55294
 519.99;14655.164;  304.901;50520.942; 0.54398
 520.58;15031.075;  313.039;50964.514; 0.53674
 521.16;15301.410;  316.114;51139.212; 0.53040
 521.75;15635.682;  315.579;51354.849; 0.52264
 522.33;15957.682;  314.722;51552.832; 0.51527
 522.91;16338.656;  303.280;51724.449; 0.50606
 523.50;16627.301;  304.661;51708.091; 0.49820
 524.08;16863.405;  292.957;51816.521; 0.49267
 524.67;17195.385;  296.699;52029.160; 0.48591
 525.25;17475.866;  294.898;52244.306; 0.48053
 525.83;17782.572;  300.195;52281.679; 0.47325
 526.42;18057.551;  299.604;52255.985; 0.46625
 527.00;18308.885;  297.414;52315.968; 0.46061
 527.59;18560.984;  293.742;52194.390; 0.45350
 528.17;18800.059;  296.702;52169.461; 0.44769
 528.75;19139.716;  314.407;52237.781; 0.44062
 529.34;19464.139;  317.963;52410.206; 0.43469
 529.92;19783.295;  322.096;52599.701; 0.42915
 530.50;19967.354;  308.099;52577.086; 0.42468
 531.09;20226.191;  310.277;52580.588; 0.41905
 531.67;20422.667;  319.699;52493.409; 0.41419
 532.25;20656.551;  331.224;52474.618; 0.40916
 532.84;20865.027;  319.265;52286.406; 0.40301
 533.42;21070.413;  303.579;52069.121; 0.39667
 534.00;21314.569;  296.379;51800.283; 0.38924
 534.59;21468.974;  306.923;51692.027; 0.38528
 535.17;21604.249;  307.396;51484.292; 0.38076
 535.75;21738.323;  311.833;51399.345; 0.37736
 536.34;21968.955;  327.170;51106.314; 0.37039
 536.92;22125.318;  323.362;50970.357; 0.36606
 537.50;22237.666;  320.767;50555.361; 0.36022
 538.09;22224.250;  304.234;50224.272; 0.35743
 538.67;22355.999;  307.957;49849.711; 0.35160
 539.25;22457.854;  292.004;49517.578; 0.34651
 539.84;22612.056;  298.382;49195.084; 0.34071
 540.42;22630.744;  287.620;48747.408; 0.33624
 541.00;22779.946;  304.712;48328.615; 0.32975
 541.59;22867.468;  293.453;47996.146; 0.32493
 542.17;23078.975;  303.713;47681.974; 0.31812
 542.75;23095.098;  301.687;47449.085; 0.31565
 543.33;23104.772;  321.928;47035.436; 0.31183
 543.92;23056.129;  322.791;46647.473; 0.30915
 544.50;23149.996;  319.637;46212.001; 0.30323
 545.08;23384.073;  303.653;45900.067; 0.29569
 545.67;23428.533;  304.594;45544.519; 0.29146
 546.25;23519.279;  306.855;45243.598; 0.28688
 546.83;23570.574;  305.919;44881.223; 0.28240
 547.41;23723.981;  307.185;44485.963; 0.27569
 548.00;23677.765;  304.048;44073.416; 0.27244
 548.58;23590.368;  293.554;43651.340; 0.26977
 549.16;23641.668;  273.252;43462.973; 0.26675
 549.74;23771.035;  276.221;43125.006; 0.26097
 550.33;23893.397;  287.338;42789.017; 0.25538
 550.91;23859.853;  287.502;42328.145; 0.25127
 551.49;23881.756;  275.114;42084.067; 0.24824
 552.07;23881.701;  281.527;41894.675; 0.24632
 552.66;24001.620;  296.715;41696.915; 0.24216
 553.24;24137.176;  301.874;41407.799; 0.23668
 553.82;24332.445;  287.046;41262.389; 0.23149
 554.40;24512.041;  287.502;41018.645; 0.22567
 554.98;24628.578;  286.839;40927.197; 0.22261
 555.57;24688.145;  295.511;40724.442; 0.21943
 556.15;24851.565;  295.794;40729.857; 0.21659
 556.73;24988.907;  289.872;40584.856; 0.21257
 557.31;25162.161;  280.087;40487.094; 0.20842
 557.89;25182.638;  267.680;40402.230; 0.20706
 558.48;25353.224;  270.725;40389.487; 0.20398
 559.06;25520.378;  269.279;40492.969; 0.20220
 559.64;25805.100;  288.172;40421.363; 0.19668
 560.22;26062.892;  308.276;40298.501; 0.19110
 560.80;26192.500;  311.749;40155.433; 0.18738
 561.39;26339.223;  300.174;40123.139; 0.18451
 561.97;26431.560;  304.256;40118.465; 0.18294
 562.55;26589.020;  305.864;40159.584; 0.18079
 563.13;26823.919;  307.652;40244.814; 0.17786
 563.71;27039.761;  295.320;40343.674; 0.17535
 564.29;27285.911;  296.315;40286.513; 0.17076
 564.88;27396.111;  280.495;40218.374; 0.16817
 565.46;27545.191;  277.260;40267.767; 0.16630
 566.04;27825.333;  269.464;40338.574; 0.16260
 566.62;28161.205;  292.162;40520.457; 0.15941
 567.20;28390.758;  292.265;40647.678; 0.15722
 567.78;28580.164;  300.170;40851.754; 0.15653
 568.36;28709.498;  300.837;41002.754; 0.15616
 568.94;28872.274;  296.460;41004.189; 0.15368
 569.53;29143.614;  295.816;41099.192; 0.15058
 570.11;29302.582;  283.902;41113.488; 0.14830
 570.69;29580.681;  278.869;41248.245; 0.14556
 571.27;29718.698;  279.854;41227.262; 0.14331
 571.85;29917.326;  279.584;41295.220; 0.14110
 572.43;30185.005;  299.078;41479.213; 0.13922
 573.01;30401.665;  288.199;41566.526; 0.13696
 573.59;30618.135;  284.931;41522.011; 0.13337
 574.17;30670.414;  270.419;41423.650; 0.13153
 574.76;30846.842;  278.826;41529.098; 0.13016
 575.34;31052.073;  274.920;41725.997; 0.12931
 575.92;31176.267;  271.771;41808.186; 0.12841
 576.50;31355.248;  265.398;41828.507; 0.12609
 577.08;31477.791;  261.206;41866.048; 0.12476
 577.66;31800.783;  250.776;41875.013; 0.12035
 578.24;31838.941;  252.747;41879.155; 0.11987
 578.82;31914.029;  257.942;41897.583; 0.11905
 579.40;32044.656;  266.978;41903.210; 0.11735
 579.98;32357.408;  273.567;41841.961; 0.11248
 580.56;32544.763;  281.852;41853.319; 0.11009
 581.14;32678.943;  291.659;41917.834; 0.10899
 581.72;32827.690;  280.280;42082.244; 0.10868
 582.30;33021.593;  273.151;42074.467; 0.10600
 582.88;33183.745;  274.650;42152.288; 0.10467
 583.46;33267.266;  282.363;42189.821; 0.10398
 584.04;33332.889;  282.956;42171.457; 0.10292
 584.62;33430.578;  265.125;42197.830; 0.10187
 585.21;33476.519;  267.265;42241.428; 0.10172
 585.79;33637.443;  273.754;42392.009; 0.10120
 586.37;33704.409;  277.118;42415.309; 0.10057
 586.95;34021.249;  275.522;42455.787; 0.09689
 587.53;34284.301;  269.979;42469.819; 0.09365
 588.11;34507.732;  278.442;42585.262; 0.09201
 588.69;34534.320;  282.733;42557.865; 0.09140
 589.27;34597.263;  283.424;42506.477; 0.09008
 589.85;34624.395;  276.026;42443.602; 0.08907
 590.43;34819.402;  271.715;42599.939; 0.08821
 591.01;34875.642;  278.076;42722.853; 0.08878
 591.59;35173.399;  288.299;42936.945; 0.08727
 592.16;35187.777;  287.924;42891.657; 0.08662
 592.74;35406.176;  291.617;42886.045; 0.08387
 593.32;35324.765;  293.193;42739.948; 0.08338
 593.90;35465.790;  297.895;42708.966; 0.08133
 594.48;35557.522;  288.777;42603.037; 0.07910
 595.06;35793.281;  285.245;42684.475; 0.07703
 595.64;35901.375;  272.769;42709.242; 0.07594
 596.22;35930.607;  276.890;42757.472; 0.07609
 596.80;35795.763;  268.138;42505.619; 0.07513
 597.38;35798.708;  264.245;42457.558; 0.07459
 597.96;35744.057;  262.869;42299.911; 0.07363
 598.54;35800.549;  268.057;42320.734; 0.07317
 599.12;35773.563;  272.769;42174.074; 0.07199
 599.70;35701.775;  272.156;42133.628; 0.07245
 600.28;35743.354;  269.178;41999.881; 0.07054
 600.86;35681.386;  273.568;41898.236; 0.07025
 601.44;35739.137;  279.130;41816.989; 0.06871
 602.02;35718.798;  273.135;41601.984; 0.06669
 602.59;35633.320;  269.019;41487.164; 0.06652
 603.17;35660.136;  254.435;41427.991; 0.06555
 603.75;35623.497;  264.600;41407.036; 0.06579
 604.33;35630.495;  268.544;41269.041; 0.06425
 604.91;35698.432;  272.574;41056.648; 0.06117
 605.49;35722.858;  271.546;40985.067; 0.06011
 606.07;35691.690;  254.900;40828.877; 0.05879
 606.65;35546.515;  260.422;40696.701; 0.05917
 607.23;35348.275;  264.441;40448.820; 0.05895
 607.80;35209.826;  277.156;40221.379; 0.05822
 608.38;35011.269;  277.256;40025.464; 0.05856
 608.96;34844.148;  285.786;39921.000; 0.05953
 609.54;34752.853;  288.246;39743.725; 0.05873
 610.12;34601.836;  283.928;39528.375; 0.05826
 610.70;34500.756;  273.259;39095.265; 0.05470
 611.28;34298.222;  259.195;38813.390; 0.05409
 611.85;34054.723;  265.841;38433.913; 0.05293
 612.43;33748.091;  260.695;38304.961; 0.05541
 613.01;33577.963;  263.202;38019.161; 0.05435
 613.59;33403.920;  249.299;37795.112; 0.05402
 614.17;33260.549;  240.914;37668.085; 0.05441
 614.75;33007.667;  222.778;37521.205; 0.05602
 615.32;32875.247;  209.277;37291.775; 0.05507
 615.90;32792.368;  219.080;36866.572; 0.05118
 616.48;32691.112;  232.952;36658.988; 0.05009
 617.06;32450.283;  255.157;36308.488; 0.04916
 617.64;32176.937;  246.140;36072.812; 0.05000
 618.22;31928.975;  241.049;35666.522; 0.04842
 618.79;31780.739;  228.178;35515.632; 0.04859
 619.37;31552.122;  227.104;35180.352; 0.04760
 619.95;31316.063;  231.387;34894.600; 0.04732
 620.53;30950.963;  218.869;34491.494; 0.04736
 621.11;30705.418;  206.529;34156.975; 0.04656
 621.68;30490.140;  201.116;33920.700; 0.04660
 622.26;30374.898;  202.843;33803.106; 0.04674
 622.84;30116.503;  212.594;33643.042; 0.04841
 623.42;29889.530;  214.208;33340.072; 0.04777
 623.99;29668.949;  232.130;33128.823; 0.04826
 624.57;29633.997;  239.695;32874.211; 0.04541
 625.15;29516.063;  249.244;32723.283; 0.04516
 625.73;29255.226;  235.066;32483.448; 0.04581
 626.30;29073.240;  228.444;32290.122; 0.04592
 626.88;28916.390;  228.031;32032.596; 0.04478
 627.46;28767.565;  230.061;31766.787; 0.04340
 628.04;28494.319;  242.419;31549.234; 0.04459
 628.61;28290.190;  241.899;31249.103; 0.04356
 629.19;28097.183;  244.829;31015.066; 0.04327
 629.77;27900.213;  231.831;30736.758; 0.04239
 630.35;27692.301;  234.217;30562.869; 0.04318
 630.92;27560.677;  232.092;30375.921; 0.04258
 631.50;27438.220;  220.757;30199.145; 0.04196
 632.08;27192.416;  206.521;29949.680; 0.04225
 632.66;26932.537;  196.801;29744.460; 0.04343
 633.23;26773.834;  216.776;29426.430; 0.04135
 633.81;26676.429;  225.566;29138.020; 0.03865
 634.39;26554.514;  220.298;28844.754; 0.03622
 634.96;26278.889;  221.956;28624.791; 0.03744
 635.54;26107.638;  216.680;28606.896; 0.04002
 636.12;25974.025;  214.735;28334.976; 0.03809
 636.69;25847.983;  204.526;28222.591; 0.03846
 637.27;25558.576;  199.403;27913.834; 0.03857
 637.85;25444.476;  217.219;27696.062; 0.03713
 638.42;25227.069;  206.286;27392.989; 0.03606
 639.00;25132.521;  223.367;27259.457; 0.03558
 639.58;24782.998;  209.789;26981.612; 0.03722
 640.15;24577.199;  222.891;26790.445; 0.03778
 640.73;24386.648;  204.119;26492.226; 0.03626
 641.31;24407.430;  216.013;26471.006; 0.03555
 641.88;24282.878;  210.908;26285.787; 0.03471
 642.46;24122.993;  226.803;26132.901; 0.03507
 643.04;23831.775;  214.697;25934.349; 0.03704
 643.61;23663.891;  223.925;25817.463; 0.03817
 644.19;23555.006;  209.153;25659.577; 0.03749
 644.77;23460.788;  224.048;25468.358; 0.03599
 645.34;23365.570;  211.943;25293.805; 0.03474
 645.92;23248.685;  214.504;25070.586; 0.03306
 646.49;23161.467;  218.399;24938.033; 0.03239
 647.07;22957.249;  220.293;24745.814; 0.03289
 647.65;22732.697;  224.188;24564.928; 0.03399
 648.22;22562.479;  218.082;24391.042; 0.03416
 648.80;22437.261;  227.310;24368.156; 0.03620
 649.37;22440.377;  227.872;24339.937; 0.03564
 649.95;22412.492;  227.433;24242.051; 0.03442
 650.53;22501.607;  209.328;24121.165; 0.03046
 651.10;22360.056;  214.222;24054.279; 0.03202
 651.68;22173.504;  211.450;24020.060; 0.03506
 652.25;22035.953;  221.012;23899.174; 0.03559
 652.83;21965.401;  211.573;23700.955; 0.03334
 653.41;21973.850;  208.468;23524.069; 0.02988
 653.98;21929.632;  212.362;23340.850; 0.02734
 654.56;21747.747;  211.590;23307.630; 0.03037
 655.13;21655.862;  208.818;23285.744; 0.03181
 655.71;21523.978;  207.379;23284.525; 0.03446
 656.28;21583.426;  194.941;23185.639; 0.03137
 656.86;21498.541;  188.169;22962.753; 0.02886
 657.43;21406.990;  190.397;22872.868; 0.02901
 658.01;21317.105;  212.958;22793.315; 0.02936
 658.58;21412.554;  207.519;22876.096; 0.02899
 659.16;21432.336;  211.747;22798.876; 0.02710
 659.74;21412.784;  196.309;22777.324; 0.02707
 660.31;21203.233;  204.203;22714.438; 0.03018
 660.89;21192.348;  198.098;22687.885; 0.02988
 661.46;21076.797;  206.659;22545.999; 0.02955
 662.04;21044.579;  208.554;22516.780; 0.02965
 662.61;20944.361;  207.448;22500.894; 0.03143
 663.19;21018.143;  206.676;22626.342; 0.03233
 663.76;21131.591;  209.571;22600.456; 0.02947
 664.34;21105.040;  211.132;22526.237; 0.02858
 664.91;21099.155;  214.027;22413.684; 0.02651
 665.49;21053.604;  216.922;22441.798; 0.02801
 666.06;21121.386;  213.150;22513.246; 0.02799
 666.64;21251.501;  212.044;22555.693; 0.02612
 667.21;21272.283;  216.606;22500.140; 0.02461
 667.79;21292.731;  204.167;22400.588; 0.02224
 668.36;21188.513;  201.395;22402.702; 0.02443
 668.93;21169.962;  202.290;22421.149; 0.02517
 669.51;21127.744;  198.184;22426.263; 0.02614
 670.08;21090.859;  192.412;22387.044; 0.02613
 670.66;21061.641;  189.307;22273.825; 0.02452
 671.23;21116.756;  213.201;22361.606; 0.02512
 671.81;21159.538;  219.763;22403.720; 0.02507
 672.38;21221.987;  224.324;22501.167; 0.02568
 672.96;21227.102;  213.552;22510.281; 0.02574
 673.53;21217.217;  213.113;22482.395; 0.02540
 674.10;21157.999;  213.008;22524.843; 0.02746
 674.68;21138.781;  228.236;22505.290; 0.02749
 675.25;21170.230;  221.131;22417.404; 0.02511
 675.83;21195.011;  215.692;22370.185; 0.02367
 676.40;21146.127;  203.253;22300.299; 0.02330
 676.98;21131.242;  209.148;22323.413; 0.02407
 677.55;21102.357;  210.043;22281.527; 0.02384
 678.12;21117.472;  223.937;22260.975; 0.02314
 678.70;21055.921;  221.832;22236.089; 0.02393
 679.27;21037.370;  229.060;22163.870; 0.02290
 679.85;21013.818;  216.621;22124.984; 0.02261
 680.42;20983.267;  216.516;22133.431; 0.02341
 680.99;20992.382;  192.744;22099.212; 0.02252
 681.57;20905.164;  198.305;22028.659; 0.02295
 682.14;20864.613;  205.866;21848.773; 0.02021
 682.71;20806.061;  210.761;21795.554; 0.02038
 683.29;20779.510;  200.656;21706.668; 0.01914
 683.86;20656.292;  185.884;21546.116; 0.01848
 684.43;20401.407;  198.112;21362.230; 0.02018
 685.01;20321.189;  197.006;21197.011; 0.01850
 685.58;20302.637;  206.234;21272.458; 0.02047
 686.16;20430.086;  206.462;21269.239; 0.01766
 686.73;20383.201;  215.023;21397.686; 0.02131
 687.30;20342.983;  207.585;21388.467; 0.02198
 687.88;20271.098;  217.479;21321.914; 0.02218
 688.45;20173.880;  210.707;21118.362; 0.02008
 689.02;20096.996;  213.602;21022.142; 0.01975
 689.60;20038.111;  190.497;20889.257; 0.01824
 690.17;20046.559;  199.391;20926.704; 0.01884
 690.74;19959.341;  189.619;20805.485; 0.01820
 691.31;19873.457;  204.181;20824.932; 0.02052
 691.89;19712.572;  191.742;20754.713; 0.02259
 692.46;19681.354;  212.637;20700.494; 0.02216
 693.03;19637.802;  229.198;20611.941; 0.02127
 693.61;19660.251;  234.759;20426.722; 0.01681
 694.18;19640.033;  237.320;20424.503; 0.01721
 694.75;19588.815;  206.882;20414.950; 0.01813
 695.32;19483.930;  208.110;20458.064; 0.02141
 695.90;19382.045;  203.004;20312.512; 0.02057
 696.47;19314.161;  203.899;20210.626; 0.01991
 697.04;19305.276;  214.460;20060.073; 0.01684
 697.62;19298.391;  213.355;20039.187; 0.01654
 698.19;19244.506;  229.250;19951.301; 0.01585
 698.76;19174.288;  211.144;19960.082; 0.01763
 699.33;19085.737;  210.706;19883.196; 0.01797
 699.91;18971.519;  196.600;19795.977; 0.01866
 700.48;18934.967;  206.162;19674.091; 0.01681
 701.05;18846.749;  208.056;19645.538; 0.01822
 701.62;18753.531;  232.951;19536.652; 0.01799
 702.20;18617.313;  235.179;19463.767; 0.01955
 702.77;18579.095;  232.073;19314.881; 0.01708
 703.34;18519.544;  217.301;19303.995; 0.01823
 703.91;18500.659;  214.196;19161.775; 0.01542
 704.48;18380.107;  220.091;19054.223; 0.01583
 705.06;18345.556;  212.652;18964.004; 0.01457
 705.63;18319.338;  221.213;18940.118; 0.01465
 706.20;18308.787;  214.441;18934.565; 0.01477
 706.77;18251.235;  221.336;18864.679; 0.01453
 707.34;18187.017;  215.564;18821.793; 0.01508
 707.92;18108.466;  205.792;18710.907; 0.01437
 708.49;18002.248;  193.353;18575.022; 0.01375
 709.06;17905.696;  193.248;18466.136; 0.01353
 709.63;17919.811;  194.476;18431.916; 0.01237
 710.20;17857.593;  191.037;18446.697; 0.01425
 710.77;17807.709;  187.932;18338.145; 0.01288
 711.35;17781.824;  185.826;18305.592; 0.01274
 711.92;17888.272;  205.721;18271.706; 0.00932
 712.49;17848.054;  207.616;18372.487; 0.01272
 713.06;17802.503;  215.844;18405.934; 0.01465
 713.63;17776.952;  209.405;18498.382; 0.01748
 714.20;17842.067;  212.300;18556.829; 0.01726
 714.78;17799.849;  209.528;18487.277; 0.01665
 715.35;17763.964;  205.756;18407.724; 0.01564
 715.92;17819.746;  207.317;18351.838; 0.01293
 716.49;17869.861;  222.545;18343.285; 0.01150
 717.06;17924.976;  226.106;18273.400; 0.00847
 717.63;17717.425;  217.334;18198.847; 0.01179
 718.20;17645.540;  210.895;18175.294; 0.01300
 718.77;17578.322;  224.790;18170.075; 0.01456
 719.35;17675.437;  226.351;18153.189; 0.01173
 719.92;17662.219;  211.913;18038.303; 0.00926
 720.49;17570.335;  197.474;17879.084; 0.00765
 721.06;17481.116;  177.369;17774.532; 0.00730
 721.63;17469.565;  190.930;17799.979; 0.00823
 722.20;17414.347;  195.825;17861.426; 0.01113
 722.77;17393.796;  203.386;17825.540; 0.01077
 723.34;17260.577;  196.947;17821.321; 0.01404
 723.91;17279.359;  205.509;17813.102; 0.01337
 724.48;17251.475;  222.070;17777.883; 0.01322
 725.05;17275.923;  212.964;17617.997; 0.00862
 725.62;17234.372;  195.192;17490.778; 0.00649
 726.20;17147.154;  186.754;17461.892; 0.00799
 726.77;17118.602;  192.982;17446.339; 0.00833
 727.34;17042.718;  199.210;17412.787; 0.00944
 727.91;17095.166;  209.104;17361.567; 0.00680
 728.48;17099.948;  214.999;17354.015; 0.00649
 729.05;17039.063;  215.560;17353.795; 0.00805
 729.62;16941.512;  192.788;17320.910; 0.00973
 730.19;16853.627;  185.683;17297.024; 0.01140
 730.76;17017.076;  188.578;17324.138; 0.00785
 731.33;16980.858;  211.472;17306.252; 0.00835
 731.90;16931.640;  215.034;17274.033; 0.00881
 732.47;16778.422;  206.261;17242.147; 0.01199
 733.04;16769.870;  191.156;17245.594; 0.01229
 733.61;16696.985;  168.051;17256.042; 0.01445
 734.18;16660.767;  173.945;17191.156; 0.01375
 734.75;16574.883;  184.507;17077.270; 0.01311
 735.32;16584.998;  211.401;16955.384; 0.00971
 735.89;16498.780;  203.963;16851.831; 0.00931
 736.46;16428.895;  212.191;16734.945; 0.00812
 737.03;16323.010;  203.085;16674.393; 0.00937
 737.60;16282.125;  203.647;16580.840; 0.00799
 738.17;16260.574;  173.208;16558.621; 0.00797
 738.74;16220.023;  184.103;16523.735; 0.00815
 739.31;16080.471;  185.331;16430.849; 0.00947
 739.88;15975.586;  195.225;16300.630; 0.00885
 740.45;15885.368;  176.120;16234.411; 0.00954
 741.02;15922.817;  174.348;16293.858; 0.01011
 741.59;15962.599;  171.909;16337.305; 0.01019
 742.15;15986.714;  177.804;16325.753; 0.00922
 742.72;16023.496;  185.365;16376.867; 0.00958
 743.29;15989.945;  187.593;16351.648; 0.00983
 743.86;15946.727;  195.154;16298.095; 0.00958
 744.43;15880.175;  197.049;16220.543; 0.00932
 745.00;15902.290;  201.277;16240.323; 0.00925
 745.57;15930.739;  209.172;16261.771; 0.00905
 746.14;15913.188;  201.733;16198.552; 0.00782
 746.71;15862.303;  208.294;16179.666; 0.00872
 747.28;15873.085;  196.522;16170.446; 0.00816
 747.85;15882.200;  172.417;16124.227; 0.00664
 748.42;15967.649;  173.645;16103.675; 0.00372
 748.98;15887.764;  177.206;16075.455; 0.00516
 749.55;15886.546;  197.767;16011.569; 0.00345
 750.12;15771.328;  197.662;16015.683; 0.00676
 750.69;15717.110;  204.890;15955.131; 0.00661
 751.26;15635.892;  216.118;15910.245; 0.00766
 751.83;15582.007;  206.013;15821.026; 0.00670
 752.40;15616.789;  204.907;15769.807; 0.00429
 752.97;15553.904;  192.802;15780.587; 0.00636
 753.53;15561.019;  195.697;15773.035; 0.00595
 754.10;15533.134;  187.925;15706.815; 0.00489
 754.67;15502.250;  185.486;15666.263; 0.00463
 755.24;15448.365;  192.714;15616.044; 0.00475
 755.81;15350.480;  200.608;15583.491; 0.00663
 756.38;15293.929;  223.503;15510.272; 0.00619
 756.94;15270.711;  215.064;15482.386; 0.00606
 757.51;15208.493;  204.292;15502.833; 0.00844
 758.08;15199.608;  196.520;15545.281; 0.00989
 758.65;15087.390;  213.748;15443.728; 0.01028
 759.22;15021.172;  220.643;15351.176; 0.00958
 759.79;14892.287;  205.538;15180.623; 0.00844
 760.35;14737.069;  191.432;15130.404; 0.01159
 760.92;14617.517;  201.994;14987.518; 0.01101
 761.49;14480.299;  208.555;14849.965; 0.01111
 762.06;14474.748;  211.783;14641.079; 0.00504
 762.63;14366.197;  201.011;14500.527; 0.00410
 763.19;14306.645;  203.239;14469.641; 0.00499
 763.76;14185.427;  215.133;14423.422; 0.00734
 764.33;14068.209;  219.695;14294.202; 0.00703
 764.90;13898.658;  218.589;14107.650; 0.00658
 765.46;13715.773;  197.817;13914.097; 0.00633
 766.03;13629.555;  196.045;13749.878; 0.00387
 766.60;13539.003;  197.940;13624.992; 0.00279
 767.17;13443.785;  205.501;13465.773; 0.00072
 767.73;13260.901;  207.063;13413.220; 0.00504
 768.30;13080.349;  206.624;13205.001; 0.00418
 768.87;12875.464;  215.185;13045.782; 0.00580
 769.44;12754.246;  213.413;12836.229; 0.00283
 770.00;12542.695;  215.975;12686.677; 0.00504
 770.57;12381.143;  216.536;12525.791; 0.00513
 771.14;12180.259;  213.430;12350.238; 0.00613
 771.71;12010.374;  198.325;12122.686; 0.00411
 772.27;11737.823;  206.220;11935.800; 0.00739
 772.84;11572.271;  209.448;11715.914; 0.00546
 773.41;11443.720;  213.676;11595.695; 0.00584
 773.97;11370.835;  205.904;11440.809; 0.00271
 774.54;11226.617;  213.798;11314.923; 0.00347
 775.11;11091.732;  232.360;11227.370; 0.00539
 775.67;10888.181;  228.588;11074.818; 0.00754
 776.24;10711.963;  222.482;10902.265; 0.00781
 776.81;10610.078;  220.377;10665.712; 0.00232
 777.38;10519.526;  208.272;10484.160;-0.00149
 777.94;10396.642;  214.166;10350.941;-0.00195
 778.51;10165.090;  199.728;10214.721; 0.00216
 779.08;10067.539;  210.622;10137.835; 0.00309
 779.64;10007.321;  201.517;10058.283; 0.00225
 780.21; 9926.103;  202.745; 9970.064; 0.00196
 780.78; 9822.885;  211.639; 9870.178; 0.00213
 781.34; 9706.000;  212.534; 9787.625; 0.00372
 781.91; 9677.782;  225.762; 9703.406; 0.00118
 782.47; 9608.230;  227.990; 9633.520; 0.00117
 783.04; 9528.346;  238.551; 9482.634;-0.00214
 783.61; 9436.794;  245.779; 9385.415;-0.00243
 784.17; 9389.243;  246.674; 9320.196;-0.00329
 784.74; 9319.691;  236.569; 9240.310;-0.00381
 785.31; 9283.807;  244.797; 9256.090;-0.00133
 785.87; 9219.922;  248.691; 9137.538;-0.00401
 786.44; 9160.371;  252.252; 9126.319;-0.00166
 787.00; 9058.486;  239.480; 9065.766; 0.00036
 787.57; 8962.268;  222.375; 9005.880; 0.00216
 788.14; 8937.716;  242.936; 8941.661; 0.00020
 788.70; 8941.165;  252.831; 8828.442;-0.00567
 789.27; 8921.613;  261.392; 8880.222;-0.00208
 789.83; 8880.062;  247.620; 8836.003;-0.00222
 790.40; 8828.844;  230.182; 8838.117; 0.00047
 790.96; 8825.959;  235.076; 8799.898;-0.00132
 791.53; 8730.408;  229.304; 8766.679; 0.00185
 792.10; 8679.190;  224.866; 8777.126; 0.00500
 792.66; 8644.305;  219.094; 8720.574; 0.00391
 793.23; 8654.087;  214.988; 8733.688; 0.00408
 793.79; 8640.869;  216.216; 8675.468; 0.00178
 794.36; 8613.317;  210.777; 8660.249; 0.00242
 794.92; 8569.766;  219.339; 8606.363; 0.00190
 795.49; 8529.548;  232.233; 8532.811; 0.00017
 796.05; 8478.997;  243.461; 8505.258; 0.00138
 796.62; 8507.112;  248.023; 8527.372; 0.00106
 797.19; 8491.560;  237.917; 8507.820; 0.00085
 797.75; 8486.009;  226.145; 8453.600;-0.00171
 798.32; 8483.791;  218.373; 8393.714;-0.00476
 798.88; 8434.573;  222.601; 8383.829;-0.00269
 799.45; 8440.688;  224.829; 8436.276;-0.00023
 800.01; 8493.803;  220.391; 8517.723; 0.00125
 800.58; 8708.919;  215.952; 8677.504;-0.00161
 801.14; 8967.700;  222.513; 8916.952;-0.00253
 801.71; 9217.149;  218.074; 9117.399;-0.00484
 802.27; 9478.264;  206.969; 9310.180;-0.00795
 802.84; 9674.380;  188.864; 9480.294;-0.00898
 803.40; 9901.161;  179.758; 9723.075;-0.00803
 803.96;10155.943;  198.986;10006.189;-0.00658
 804.53;10477.392;  210.548;10273.303;-0.00872
 805.09;10767.507;  208.442;10576.417;-0.00793
 805.66;11122.956;  200.670;10926.198;-0.00789
 806.22;11462.404;  172.898;11264.978;-0.00766
 806.79;11863.853;  185.793;11622.426;-0.00907
 807.35;12124.635;  182.354;11886.873;-0.00873
 807.92;12459.750;  214.582;12161.654;-0.01070
 808.48;12731.532;  221.810;12436.768;-0.01036
 809.05;12996.647;  217.705;12708.882;-0.00989
 809.61;13207.429;  213.933;13054.330;-0.00515
 810.17;13462.544;  218.827;13355.110;-0.00354
 810.74;13823.660;  231.055;13671.891;-0.00488
 811.30;14115.442;  226.617;13899.672;-0.00680
 811.87;14473.224;  214.511;14212.453;-0.00802
 812.43;14793.339;  214.406;14571.233;-0.00667
 812.99;15161.121;  216.967;14881.014;-0.00822
 813.56;15536.569;  221.862;15191.462;-0.00990
 814.12;15910.351;  221.090;15523.909;-0.01083
 814.69;16247.800;  216.318;15866.356;-0.01046
 815.25;16498.582;  210.213;16143.804;-0.00956
 815.81;16778.697;  200.774;16302.251;-0.01266
 816.38;17111.146;  196.335;16642.699;-0.01220
 816.94;17448.594;  193.897;16882.479;-0.01449
 817.51;17734.709;  192.791;17283.594;-0.01131
 818.07;17964.825;  201.019;17504.374;-0.01141
 818.63;18180.273;  202.247;17804.155;-0.00918
 819.20;18450.389;  201.808;18033.936;-0.01003
 819.76;18730.504;  209.370;18216.050;-0.01223
 820.32;18951.619;  216.598;18394.831;-0.01310
 820.89;19094.734;  218.159;18583.278;-0.01193
 821.45;19205.183;  193.387;18775.726;-0.00992
 822.01;19242.298;  176.615;18965.173;-0.00636
 822.58;19271.747;  180.843;19065.620;-0.00471
 823.14;19339.195;  194.404;19233.068;-0.00241
 823.70;19466.311;  202.299;19352.182;-0.00258
 824.27;19609.759;  193.194;19462.963;-0.00330
 824.83;19626.208;  215.421;19467.743;-0.00356
 825.39;19605.656;  215.649;19374.524;-0.00521
 825.95;19524.105;  221.211;19316.972;-0.00469
 826.52;19409.220;  191.105;19274.752;-0.00305
 827.08;19268.335;  189.000;19152.200;-0.00265
 827.64;19039.784;  175.895;18949.314;-0.00209
 828.21;18860.233;  175.123;18660.095;-0.00468
 828.77;18602.681;  181.351;18397.542;-0.00486
 829.33;18260.130;  183.579;18029.323;-0.00558
 829.89;17858.245;  181.807;17638.104;-0.00544
 830.46;17556.694;  185.701;17297.218;-0.00654
 831.02;17256.142;  190.596;16895.332;-0.00928
 831.58;16873.591;  201.157;16540.779;-0.00876
 832.15;16346.373;  185.052;16128.893;-0.00588
 832.71;15944.155;  188.280;15811.341;-0.00368
 833.27;15479.937;  178.841;15353.455;-0.00360
 833.83;15049.052;  169.736;14940.569;-0.00318
 834.39;14465.834;  164.297;14394.016;-0.00219
 834.96;13972.282;  162.192;13925.464;-0.00147
 835.52;13564.064;  187.086;13474.578;-0.00292
 836.08;13193.513;  188.981;13047.025;-0.00492
 836.64;12820.961;  194.876;12619.473;-0.00699
 837.21;12346.743;  198.770;12148.920;-0.00713
 837.77;11933.859;  198.332;11759.367;-0.00651
 838.33;11538.974;  206.893;11447.148;-0.00353
 838.89;11155.089;  203.121;11001.596;-0.00613
 839.45;10712.871;  205.349;10589.710;-0.00512
 840.02;10207.986;  209.910;10134.490;-0.00320
 840.58; 9781.435;  201.805; 9836.938; 0.00251
 841.14; 9373.550;  224.699; 9457.052; 0.00395
 841.70; 9078.332;  220.594; 9049.833;-0.00140
 842.26; 8704.781;  218.155; 8613.280;-0.00471
 842.82; 8374.896;  209.050; 8233.061;-0.00761
 843.39; 7941.011;  200.278; 7802.175;-0.00786
 843.95; 7521.793;  213.839; 7446.956;-0.00447
 844.51; 7071.575;  213.734; 7076.737; 0.00033
 845.07; 6752.690;  223.295; 6751.184;-0.00010
 845.63; 6525.805;  228.523; 6447.965;-0.00540
 846.19; 6328.921;  213.418; 6205.745;-0.00884
 846.75; 6137.369;  212.646; 6042.860;-0.00698
 847.32; 5944.818;  191.874; 5828.307;-0.00889
 847.88; 5705.600;  198.435; 5647.088;-0.00464
 848.44; 5511.715;  182.996; 5418.202;-0.00769
 849.00; 5300.164;  188.224; 5206.649;-0.00802
 849.56; 5225.612;  183.119; 5035.763;-0.01667
 850.12; 5086.727;  176.680; 4913.211;-0.01563
 850.68; 4965.843;  181.908; 4877.325;-0.00811
 851.24; 4862.958;  184.136; 4806.439;-0.00528
 851.80; 4827.740;  199.364; 4790.220;-0.00353
 852.37; 4838.522;  196.592; 4731.334;-0.01015
 852.93; 4806.637;  204.820; 4729.448;-0.00735
 853.49; 4769.086;  212.715; 4650.895;-0.01141
 854.05; 4743.534;  223.943; 4597.676;-0.01425
 854.61; 4661.316;  224.171; 4520.790;-0.01398
 855.17; 4632.765;  234.066; 4501.904;-0.01312
 855.73; 4614.213;  222.627; 4484.352;-0.01304
 856.29; 4651.995;  213.855; 4475.132;-0.01766
 856.85; 4653.777;  192.749; 4517.913;-0.01343
 857.41; 4667.559;  203.644; 4600.027;-0.00662
 857.97; 4769.341;  205.205; 4760.141;-0.00088
 858.53; 4951.456;  207.433; 4902.255;-0.00453
 859.09; 5174.238;  192.328; 5028.370;-0.01291
 859.65; 5383.353;  184.889; 5166.484;-0.01851
 860.21; 5611.802;  182.451; 5403.598;-0.01698
 860.77; 5854.251;  179.679; 5685.045;-0.01315
 861.33; 6185.366;  189.573; 6014.826;-0.01253
 861.89; 6575.481;  205.135; 6331.273;-0.01698
 862.45; 6954.596;  215.363; 6656.387;-0.01966
 863.01; 7275.378;  205.924; 6960.168;-0.01981
 863.57; 7526.494;  191.152; 7240.949;-0.01724
 864.13; 7876.942;  180.713; 7598.730;-0.01599
 864.69; 8227.391;  188.608; 7928.510;-0.01645
 865.25; 8616.506;  208.502; 8274.958;-0.01801
 865.81; 8898.955;  215.730; 8598.739;-0.01528
 866.37; 9280.736;  213.625; 8883.853;-0.01944
 866.93; 9593.185;  200.853; 9198.967;-0.01862
 867.49; 9965.634;  216.081; 9536.081;-0.01957
 868.05;10208.082;  210.642; 9849.195;-0.01588
 868.61;10494.197;  206.870;10116.309;-0.01625
 869.17;10779.313;  185.765;10306.090;-0.01985
 869.73;11202.428;  202.660;10652.537;-0.02227
 870.29;11517.877;  209.554;10985.985;-0.02092
 870.85;11900.992;  212.115;11316.099;-0.02229
 871.41;12222.107;  192.010;11700.213;-0.01926
 871.97;12582.222;  179.571;12032.994;-0.01967
 872.53;12860.004;  184.799;12414.108;-0.01555
 873.09;13157.786;  192.361;12748.222;-0.01394
 873.65;13629.901;  202.922;13125.336;-0.01663
 874.20;14108.350;  204.150;13530.783;-0.01843
 874.76;14537.683;  206.483;13844.450;-0.02153
 875.32;14906.017;  199.150;14344.450;-0.01691
 875.88;15217.683;  204.817;14722.117;-0.01458
 876.44;15611.017;  218.150;15059.450;-0.01585
 877.00;16008.017;  218.150;15358.117;-0.01825
 877.56;16326.683;  215.483;15696.450;-0.01733
 878.12;16563.350;  204.483;16104.450;-0.01236
 878.68;16787.350;  211.817;16344.450;-0.01176
 879.23;17096.683;  207.150;16637.783;-0.01196
 879.79;17428.683;  220.483;16875.783;-0.01418
 880.35;17640.683;  205.150;17127.117;-0.01298
 880.91;17947.683;  192.150;17367.783;-0.01442
 881.47;18145.017;  175.817;17611.783;-0.01308
 882.03;18458.350;  191.483;17929.783;-0.01275
 882.59;18710.350;  204.150;18199.450;-0.01216
 883.14;18941.017;  217.150;18423.117;-0.01218
 883.70;19173.017;  220.150;18492.117;-0.01589
 884.26;19315.017;  217.483;18606.117;-0.01643
 884.82;19422.350;  200.150;18627.783;-0.01833
 885.38;19335.683;  184.483;18693.783;-0.01481
 885.94;19267.683;  186.817;18692.783;-0.01329
 886.49;19219.683;  200.150;18759.783;-0.01063
 887.05;19187.350;  192.817;18819.450;-0.00849
 887.61;19077.683;  182.817;18766.450;-0.00721
 888.17;18997.017;  175.817;18655.450;-0.00795
 888.73;18917.017;  189.483;18492.450;-0.00996
 889.28;18809.017;  190.150;18251.117;-0.01321
 889.84;18625.350;  191.817;18020.450;-0.01449
 890.40;18475.350;  194.817;17792.450;-0.01653
 890.96;18217.017;  199.483;17628.450;-0.01442
 891.51;18003.683;  189.483;17470.117;-0.01321
 892.07;17752.350;  183.817;17244.117;-0.01275
 892.63;17604.350;  190.483;17036.783;-0.01439
 893.19;17440.017;  200.817;16880.117;-0.01434
 893.74;17282.683;  215.150;16772.783;-0.01317
 894.30;17194.683;  206.150;16671.450;-0.01359
 894.86;17049.683;  185.150;16510.450;-0.01411
 895.42;16953.683;  176.483;16397.450;-0.01464
 895.97;16835.017;  175.150;16362.450;-0.01250
 896.53;16909.017;  203.817;16299.450;-0.01614
 897.09;16824.350;  212.817;16258.117;-0.01506
 897.65;16719.017;  225.483;16079.783;-0.01717
 898.20;16581.017;  228.483;15994.117;-0.01587
 898.76;16537.683;  215.150;15888.117;-0.01764
 899.32;16484.683;  215.483;15824.450;-0.01799
 899.87;16372.350;  206.483;15765.117;-0.01663
 900.43;16233.017;  206.150;15631.783;-0.01661
 900.99;16112.683;  194.483;15508.450;-0.01681
 901.54;15867.683;  181.150;15319.450;-0.01545
 902.10;15688.017;  193.150;15133.117;-0.01584
 902.66;15443.350;  208.483;14918.117;-0.01524
 903.21;15325.683;  221.817;14754.117;-0.01675
 903.77;15112.683;  229.483;14588.450;-0.01557
 904.33;15022.017;  209.483;14443.783;-0.01729
 904.88;14823.683;  198.150;14329.783;-0.01492
 905.44;14814.017;  177.150;14293.450;-0.01573
 906.00;14774.683;  191.150;14324.117;-0.01363
 906.55;14714.683;  207.483;14294.117;-0.01278
 907.11;14510.683;  214.150;14239.117;-0.00833
 907.67;14304.017;  205.817;14016.117;-0.00896
 908.22;14201.350;  196.150;13855.783;-0.01085
 908.78;14118.350;  187.817;13715.783;-0.01274
 909.33;14032.350;  195.483;13616.783;-0.01324
 909.89;13941.683;  192.150;13488.783;-0.01455
 910.45;13864.350;  201.150;13406.783;-0.01479
 911.00;13809.683;  191.483;13362.117;-0.01451
 911.56;13710.017;  203.817;13272.117;-0.01431
 912.12;13574.350;  208.483;13101.117;-0.01566
 912.67;13443.683;  221.483;12951.117;-0.01649
 913.23;13291.683;  194.150;12807.450;-0.01636
 913.78;13170.350;  178.483;12651.783;-0.01769
 914.34;13031.350;  201.483;12642.117;-0.01338
 914.89;12925.017;  216.483;12543.117;-0.01325
 915.45;12885.017;  227.150;12558.117;-0.01136
 916.01;12739.017;  195.483;12386.117;-0.01239
 916.56;12713.017;  201.483;12282.450;-0.01521
 917.12;12555.683;  196.817;12063.117;-0.01766
 917.67;12475.683;  195.483;11981.117;-0.01785
 918.23;12313.683;  182.817;11944.450;-0.01342
 918.78;12198.017;  186.483;11927.117;-0.00991
 919.34;12045.017;  188.817;11843.783;-0.00743
 919.89;11948.350;  199.150;11694.117;-0.00950
 920.45;11831.017;  185.817;11531.783;-0.01131
 921.00;11746.017;  168.817;11330.783;-0.01586
 921.56;11641.350;  176.150;11296.783;-0.01325
 922.11;11549.350;  175.150;11154.450;-0.01535
 922.67;11409.017;  202.483;11048.450;-0.01420
 923.22;11133.683;  191.150;10815.450;-0.01282
 923.78;10875.350;  202.817;10632.117;-0.01001
 924.33;10731.683;  195.817;10497.117;-0.00978
 924.89;10645.017;  196.483;10361.117;-0.01196
 925.44;10558.017;  204.817;10248.117;-0.01320
 926.00;10405.683;  201.150;10018.783;-0.01679
 926.55;10248.017;  205.150; 9867.117;-0.01679
 927.11;10147.683;  188.150; 9720.450;-0.01904
 927.66;10063.683;  177.817; 9717.117;-0.01550
 928.22;10075.350;  174.483; 9670.783;-0.01812
 928.77;10028.350;  190.150; 9636.117;-0.01767
 929.33; 9981.683;  204.150; 9587.783;-0.01786
 929.88; 9855.683;  205.150; 9516.450;-0.01554
 930.43; 9811.683;  182.483; 9493.450;-0.01460
 930.99; 9806.017;  174.817; 9470.117;-0.01542
 931.54; 9844.350;  167.150; 9456.783;-0.01775
 932.10; 9796.350;  190.150; 9473.117;-0.01486
 932.65; 9788.683;  197.150; 9480.117;-0.01420
 933.21; 9821.350;  198.483; 9496.450;-0.01492
 933.76; 9849.350;  187.483; 9472.117;-0.01730
 934.31; 9832.017;  183.150; 9454.117;-0.01735
 934.87; 9753.350;  190.150; 9433.783;-0.01476
 935.42; 9785.350;  199.483; 9431.450;-0.01634
 935.98; 9768.350;  195.483; 9388.450;-0.01759
 936.53; 9728.350;  193.817; 9335.450;-0.01828
 937.08; 9629.017;  191.150; 9347.783;-0.01314
 937.64; 9538.350;  197.817; 9356.783;-0.00853
 938.19; 9573.017;  196.483; 9425.117;-0.00690
 938.74; 9554.017;  199.817; 9340.117;-0.01005
 939.30; 9594.683;  187.150; 9339.783;-0.01193
 939.85; 9530.350;  186.483; 9209.783;-0.01516
 940.40; 9577.683;  173.817; 9251.783;-0.01532
 940.96; 9535.683;  187.150; 9238.450;-0.01403
 941.51; 9582.350;  189.483; 9244.783;-0.01590
 942.06; 9525.350;  197.150; 9160.450;-0.01733
 942.62; 9430.350;  184.817; 9036.783;-0.01889
 943.17; 9314.017;  195.150; 8966.450;-0.01688
 943.72; 9215.683;  180.483; 8903.117;-0.01529
 944.28; 9178.350;  199.483; 8795.117;-0.01894
 944.83; 9165.017;  184.150; 8766.783;-0.01970
 945.38; 9171.350;  194.483; 8735.117;-0.02163
 945.94; 9208.683;  186.483; 8804.450;-0.01991
 946.49; 9162.350;  205.150; 8772.783;-0.01931
 947.04; 9069.683;  208.817; 8738.117;-0.01656
 947.60; 8965.683;  215.150; 8638.117;-0.01657
 948.15; 8888.683;  203.483; 8519.117;-0.01888
 948.70; 8778.017;  212.817; 8413.783;-0.01887
 949.25; 8669.350;  206.150; 8325.117;-0.01803
 949.81; 8490.350;  208.817; 8271.117;-0.01165
 950.36; 8371.683;  198.483; 8157.117;-0.01155
 950.91; 8233.350;  207.150; 8037.783;-0.01071
 951.46; 8098.017;  203.817; 7873.117;-0.01255
 952.02; 7973.017;  207.150; 7734.117;-0.01357
 952.57; 7858.017;  207.150; 7606.450;-0.01452
 953.12; 7752.683;  218.483; 7526.117;-0.01326
 953.67; 7649.683;  218.150; 7443.783;-0.01220
 954.23; 7532.683;  215.817; 7359.450;-0.01041
 954.78; 7433.683;  208.150; 7234.450;-0.01214
 955.33; 7264.017;  218.150; 7119.783;-0.00898
 955.88; 7215.350;  217.150; 6980.117;-0.01485
 956.44; 7136.350;  230.483; 6838.450;-0.01915
 956.99; 7118.017;  228.817; 6737.117;-0.02470
 957.54; 7011.350;  223.817; 6672.783;-0.02222
 958.09; 6952.683;  222.150; 6636.783;-0.02088
 958.64; 6920.350;  206.817; 6607.450;-0.02073
 959.20; 6870.017;  203.483; 6532.450;-0.02257
 959.75; 6808.683;  199.817; 6496.450;-0.02102
 960.30; 6762.683;  218.150; 6441.783;-0.02183
 960.85; 6735.350;  225.150; 6424.450;-0.02125
 961.40; 6728.017;  228.817; 6381.117;-0.02382
 961.95; 6732.017;  231.817; 6360.783;-0.02554
 962.51; 6728.017;  239.483; 6360.117;-0.02535
 963.06; 6746.350;  242.817; 6380.117;-0.02517
 963.61; 6737.350;  234.150; 6314.783;-0.02918
 964.16; 6724.350;  235.150; 6258.450;-0.03236
 964.71; 6657.683;  222.483; 6212.117;-0.03116
 965.26; 6675.683;  213.150; 6253.117;-0.02937
 965.81; 6655.683;  210.817; 6289.117;-0.02543
 966.36; 6681.017;  208.483; 6323.783;-0.02466
 966.92; 6671.350;  216.150; 6305.117;-0.02537
 967.47; 6650.683;  218.483; 6338.117;-0.02163
 968.02; 6679.017;  232.483; 6354.117;-0.02246
 968.57; 6659.683;  234.817; 6375.450;-0.01965
 969.12; 6691.683;  219.817; 6368.783;-0.02223
 969.67; 6765.683;  204.483; 6420.783;-0.02345
 970.22; 6797.350;  194.150; 6469.783;-0.02210
 970.77; 6956.017;  199.817; 6539.117;-0.02766
 971.32; 7013.017;  197.483; 6593.117;-0.02762
 971.87; 7105.017;  198.817; 6693.117;-0.02671
 972.42; 7159.350;  215.150; 6793.117;-0.02353
 972.98; 7169.683;  220.817; 6908.783;-0.01662
 973.53; 7287.683;  231.483; 6996.117;-0.01833
 974.08; 7304.350;  215.483; 7040.450;-0.01648
 974.63; 7407.683;  223.483; 7078.450;-0.02037
 975.18; 7464.017;  218.483; 7103.117;-0.02219
 975.73; 7558.350;  224.817; 7157.450;-0.02442
 976.28; 7620.017;  221.483; 7219.117;-0.02419
 976.83; 7661.683;  221.483; 7315.450;-0.02070
 977.38; 7684.017;  219.483; 7373.783;-0.01844
 977.93; 7694.350;  222.150; 7387.450;-0.01821
 978.48; 7710.350;  228.483; 7365.783;-0.02048
 979.03; 7752.017;  234.817; 7358.117;-0.02337
 979.58; 7730.017;  221.483; 7329.117;-0.02383
 980.13; 7707.017;  207.150; 7367.783;-0.02010
 980.68; 7628.017;  186.483; 7310.450;-0.01894
 981.23; 7618.017;  185.817; 7278.117;-0.02033
 981.78; 7575.017;  207.150; 7207.450;-0.02223
 982.33; 7552.017;  219.150; 7257.117;-0.01783
 982.88; 7514.683;  232.483; 7211.783;-0.01845
 983.43; 7483.017;  218.150; 7145.783;-0.02064
 983.98; 7454.683;  215.150; 6984.117;-0.02919
 984.53; 7320.350;  203.817; 6873.450;-0.02817
 985.08; 7226.350;  209.817; 6835.783;-0.02487
 985.63; 7129.683;  211.150; 6787.117;-0.02205
 986.18; 7108.683;  218.817; 6756.783;-0.02277
 986.73; 6950.350;  218.483; 6610.450;-0.02250
 987.27; 6838.017;  227.483; 6521.117;-0.02134
 987.82; 6794.350;  238.483; 6431.783;-0.02471
 988.37; 6799.350;  243.150; 6400.783;-0.02724
 988.92; 6760.017;  234.150; 6351.117;-0.02810
 989.47; 6623.350;  214.483; 6285.117;-0.02355
 990.02; 6503.350;  208.483; 6199.117;-0.02151
 990.57; 6390.350;  208.150; 6083.117;-0.02214
 991.12; 6309.017;  215.150; 6044.450;-0.01928
 991.67; 6242.683;  213.817; 5969.117;-0.02017
 992.22; 6114.350;  200.483; 5915.450;-0.01486
 992.77; 6063.683;  200.150; 5802.450;-0.01979
 993.31; 5989.017;  204.817; 5735.783;-0.01944
 993.86; 5943.017;  230.483; 5683.783;-0.02017
 994.41; 5841.017;  235.150; 5580.117;-0.02070
 994.96; 5720.350;  226.483; 5473.117;-0.02000
 995.51; 5583.017;  218.817; 5377.783;-0.01694
 996.06; 5435.683;  208.483; 5293.783;-0.01195
 996.61; 5309.350;  222.483; 5201.783;-0.00928
 997.15; 5251.017;  236.150; 5083.450;-0.01476
 997.70; 5171.350;  241.150; 4965.117;-0.01856
 998.25; 5070.683;  247.483; 4873.450;-0.01813
 998.80; 4939.017;  248.483; 4740.117;-0.01882
 999.35; 4822.017;  249.483; 4623.450;-0.01928
 999.90; 4668.017;  236.150; 4455.117;-0.02138
1000.44; 4460.017;  224.483; 4340.450;-0.01244
1000.99; 4289.017;  232.483; 4190.783;-0.01065
1001.54; 4174.683;  237.150; 4067.450;-0.01199
1002.09; 4081.683;  231.817; 3939.117;-0.01639
1002.64; 4000.683;  238.483; 3855.450;-0.01710
1003.18; 3914.683;  240.483; 3766.783;-0.01784
1003.73; 3846.350;  238.483; 3661.450;-0.02285
1004.28; 3718.350;  226.817; 3584.450;-0.01698
1004.83; 3586.350;  209.483; 3488.117;-0.01282
1005.38; 3513.350;  210.150; 3420.783;-0.01234
1005.92; 3467.683;  219.150; 3321.783;-0.01996
1006.47; 3428.350;  236.817; 3231.783;-0.02761
1007.02; 3341.017;  235.483; 3140.117;-0.02904
1007.57; 3253.683;  222.817; 3087.450;-0.02450
1008.11; 3164.350;  211.817; 3028.450;-0.02046
1008.66; 3142.683;  205.150; 2973.450;-0.02577
1009.21; 3094.350;  192.483; 2907.783;-0.02886
1009.75; 3036.017;  177.817; 2862.117;-0.02726
1010.30; 2907.017;  170.150; 2793.117;-0.01846
1010.85; 2826.350;  176.817; 2712.783;-0.01903
1011.40; 2763.017;  204.150; 2628.450;-0.02346
1011.94; 2689.683;  221.817; 2545.783;-0.02609
1012.49; 2622.683;  216.483; 2464.450;-0.02954
1013.04; 2540.017;  194.150; 2362.117;-0.03425
1013.58; 2469.683;  184.150; 2325.117;-0.02838
1014.13; 2384.017;  188.483; 2268.117;-0.02355
1014.68; 2309.350;  196.483; 2233.450;-0.01589
1015.23; 2263.683;  203.150; 2181.450;-0.01769
1015.77; 2190.350;  199.817; 2113.117;-0.01719
1016.32; 2154.017;  204.817; 2072.450;-0.01856
1016.87; 2090.683;  209.483; 2012.783;-0.01837
1017.41; 2084.017;  206.817; 1977.450;-0.02538
1017.96; 2040.350;  194.817; 1953.450;-0.02095
1018.50; 2003.683;  186.483; 1926.450;-0.01886
1019.05; 1927.350;  188.483; 1903.450;-0.00601
1019.60; 1875.683;  182.817; 1815.783;-0.01565
1020.14; 1825.683;  196.150; 1752.783;-0.01988
1020.69; 1771.350;  196.150; 1698.117;-0.02068
1021.24; 1729.017;  209.483; 1650.450;-0.02306
1021.78; 1693.350;  188.483; 1620.450;-0.02157
1022.33; 1664.017;  190.150; 1592.450;-0.02162
1022.87; 1625.017;  182.817; 1587.783;-0.01136
1023.42; 1568.017;  198.150; 1567.117;-0.00029
1023.97; 1520.350;  200.150; 1516.117;-0.00139
1024.51; 1498.683;  212.150; 1465.117;-0.01148
1025.06; 1458.017;  200.483; 1401.117;-0.02011
1025.60; 1435.683;  198.817; 1340.783;-0.03467
1026.15; 1368.350;  181.150; 1307.783;-0.02274
1026.70; 1336.350;  185.483; 1284.783;-0.01991
1027.24; 1303.017;  195.483; 1279.783;-0.00921
1027.79; 1288.683;  200.483; 1270.450;-0.00734
1028.33; 1269.017;  197.483; 1252.450;-0.00677
1028.88; 1222.683;  188.817; 1215.450;-0.00305
1029.42; 1198.683;  208.150; 1198.450;-0.00010
1029.97; 1156.017;  197.817; 1156.450; 0.00020
1030.51; 1136.017;  190.150; 1127.117;-0.00411
1031.06; 1136.350;  182.817; 1088.783;-0.02222
1031.61; 1130.350;  192.483; 1063.117;-0.03231
1032.15; 1126.350;  210.150; 1050.450;-0.03756
1032.70; 1093.017;  202.817; 1024.117;-0.03499
1033.24; 1067.017;  206.483; 1018.117;-0.02541
1033.79; 1045.350;  200.817; 1020.450;-0.01300
1034.33; 1018.350;  199.817; 1016.450;-0.00101
1034.88; 1019.683;  201.817; 1008.783;-0.00583
1035.42; 1000.350;  202.817;  979.450;-0.01153
1035.97;  977.350;  204.483;  950.450;-0.01539
1036.51;  966.017;  206.483;  931.450;-0.02023
1037.06;  957.683;  200.817;  944.117;-0.00786
1037.60;  971.683;  207.150;  948.783;-0.01321
1038.14;  960.683;  204.150;  928.783;-0.01871
1038.69;  974.683;  222.150;  927.783;-0.02795
1039.23;  977.017;  234.483;  935.783;-0.02481
1039.78;  972.017;  235.150;  948.783;-0.01391
1040.32;  955.017;  224.483;  915.783;-0.02397
1040.87;  936.017;  208.483;  887.117;-0.03022
1041.41;  928.350;  198.150;  864.117;-0.03999
1041.96;  925.350;  200.817;  882.783;-0.02630
1042.50;  912.350;  197.817;  893.117;-0.01185
1043.04;  908.683;  213.817;  899.117;-0.00602
1043.59;  909.350;  217.150;  867.450;-0.02712
1044.13;  900.017;  212.483;  869.450;-0.01975
1044.68;  874.350;  205.817;  862.117;-0.00802
1045.22;  857.017;  199.150;  873.783; 0.01093
1045.76;  852.683;  201.817;  869.450; 0.01105
1046.31;  850.350;  193.483;  861.783; 0.00749
1046.85;  855.017;  200.483;  842.117;-0.00864
1047.40;  837.350;  202.483;  813.783;-0.01643
1047.94;  851.350;  215.150;  808.783;-0.03008
1048.48;  828.017;  211.150;  810.117;-0.01279
1049.03;  835.683;  214.483;  793.450;-0.03058
1049.57;  818.017;  229.150;  787.117;-0.02341
1050.11;  813.683;  222.817;  774.117;-0.03010
1050.66;  792.683;  218.483;  779.117;-0.01038
1051.20;  808.350;  206.483;  794.450;-0.01015
1051.74;  799.017;  200.817;  788.117;-0.00799
1052.29;  780.017;  200.150;  780.783; 0.00057
1052.83;  748.683;  199.150;  748.117;-0.00045
1053.37;  770.683;  224.817;  744.783;-0.02111
1053.92;  784.017;  234.150;  739.783;-0.03642
1054.46;  777.350;  236.483;  734.117;-0.03618
1055.00;  760.683;  231.483;  739.117;-0.01807
1055.55;  754.350;  230.817;  738.117;-0.01368
1056.09;  737.350;  223.817;  747.783; 0.00874
1056.63;  714.683;  215.817;  711.783;-0.00253
1057.17;  700.683;  216.483;  709.117; 0.00750
1057.72;  704.350;  225.150;  697.450;-0.00630
1058.26;  705.683;  223.483;  705.783; 0.00009
1058.80;  697.017;  229.817;  700.450; 0.00318
1059.35;  700.350;  230.483;  686.450;-0.01304
1059.89;  683.350;  230.150;  672.450;-0.01057
1060.43;  678.017;  227.817;  654.783;-0.02301
1060.97;  656.017;  223.817;  667.117; 0.01101
1061.52;  643.683;  231.150;  682.450; 0.03901
1062.06;  652.017;  231.483;  671.450; 0.01962
1062.60;  645.350;  236.483;  658.450; 0.01370
1063.14;  656.683;  232.483;  640.783;-0.01659
1063.69;  650.350;  216.483;  640.117;-0.01037
1064.23;  653.017;  208.817;  619.783;-0.03377
1064.77;  647.350;  200.483;  598.450;-0.05033
1065.31;  636.017;  201.817;  577.450;-0.06293
1065.85;  639.017;  206.483;  567.117;-0.07895
1066.40;  622.350;  205.150;  579.450;-0.04712
1066.94;  621.017;  217.817;  579.117;-0.04765
1067.48;  615.350;  209.150;  587.783;-0.03052
1068.02;  593.683;  233.817;  562.450;-0.03943
1068.56;  573.017;  216.817;  564.783;-0.01016
1069.10;  555.350;  212.817;  549.783;-0.00712
1069.65;  587.350;  195.817;  566.450;-0.02382
1070.19;  591.350;  208.817;  566.783;-0.02883
1070.73;  596.683;  223.817;  582.783;-0.01650
1071.27;  565.683;  215.817;  567.117; 0.00178
1071.81;  553.350;  207.150;  562.117; 0.01086
1072.35;  552.683;  201.817;  549.117;-0.00444
1072.90;  536.683;  197.150;  546.783; 0.01273
1073.44;  535.350;  202.817;  540.117; 0.00618
1073.98;  519.683;  206.150;  531.450; 0.01600
1074.52;  537.683;  224.483;  538.783; 0.00152
1075.06;  540.017;  218.483;  542.450; 0.00327
1075.60;  524.683;  207.483;  531.450; 0.00917
1076.14;  518.017;  204.817;  514.117;-0.00544
1076.68;  511.017;  207.150;  504.450;-0.00949
1077.22;  537.350;  225.817;  504.783;-0.04795
1077.76;  537.017;  214.817;  498.117;-0.05588
1078.31;  526.683;  229.817;  499.783;-0.04125
1078.85;  507.350;  226.483;  517.117; 0.01485
1079.39;  494.017;  243.817;  525.450; 0.05140
1079.93;  490.350;  237.817;  507.783; 0.02899
1080.47;  492.350;  227.483;  476.450;-0.02689
1081.01;  506.350;  216.150;  474.783;-0.05001
1081.55;  522.683;  208.483;  488.783;-0.04958
1082.09;  518.017;  205.817;  488.783;-0.04270
1082.63;  512.350;  210.150;  496.450;-0.02347
1083.17;  503.350;  221.150;  500.783;-0.00397
1083.71;  500.350;  228.817;  501.450; 0.00176
1084.25;  491.683;  224.483;  471.117;-0.03478
1084.79;  487.350;  214.483;  446.450;-0.07052
1085.33;  477.017;  202.817;  450.783;-0.04367
1085.87;  467.350;  199.483;  468.450; 0.00178
1086.41;  484.017;  214.483;  471.450;-0.02074
1086.95;  488.350;  222.150;  467.117;-0.03610
1087.49;  502.017;  225.817;  454.783;-0.08145
1088.03;  489.350;  216.817;  454.117;-0.06012
1088.57;  486.017;  219.817;  450.783;-0.06166
1089.11;  469.683;  222.150;  448.117;-0.03959
1089.65;  473.350;  233.150;  458.783;-0.02717
1090.19;  472.017;  238.483;  468.117;-0.00731
1090.73;  472.350;  240.483;  471.783;-0.00106
1091.27;  466.017;  238.817;  466.117; 0.00019
1091.81;  474.683;  238.483;  458.117;-0.03158
1092.35;  477.350;  247.483;  461.450;-0.03113
1092.89;  468.683;  232.150;  457.450;-0.02113
1093.43;  453.350;  223.817;  445.783;-0.01456
1093.97;  448.017;  210.150;  441.117;-0.01278
1094.51;  427.683;  208.483;  440.450; 0.02459
1095.04;  427.017;  218.483;  442.783; 0.03165
1095.58;  435.350;  238.817;  436.783; 0.00316
1096.12;  461.017;  242.817;  428.783;-0.06942
1096.66;  461.017;  239.817;  430.450;-0.06459
1097.20;  459.683;  235.817;  449.450;-0.02032
1097.74;  454.683;  246.817;  456.783; 0.00437
1098.28;  435.017;  235.817;  457.117; 0.04569
1098.82;  426.350;  230.483;  453.117; 0.05563
1099.36;  409.017;  228.150;  446.450; 0.08170
1099.89;  426.350;  230.150;  447.450; 0.04436

