
Integration time [ms]:   0.300
Averaging Nr. [scans]: 1
Smoothing Nr. [pixels]: 1
Data measured with spectrometer [name]: 1906252U1
Wave   ;Sample   ;Dark     ;Reference;Absorbance
[nm]   ;[counts] ;[counts] ;[counts] ;[A.U]

 161.30;  270.982;  271.207;  271.637; 0.00000
 161.90;  252.701;  265.524;  261.712; 0.00000
 162.51;  256.414;  259.038;  260.433; 5.00000
 163.11;  262.153;  265.693;  251.834; 0.00000
 163.71;  275.786;  276.696;  266.803; 0.00000
 164.31;  279.798;  294.270;  273.488; 0.00000
 164.91;  278.058;  288.393;  287.410; 0.00000
 165.52;  273.916;  277.299;  279.261; 5.00000
 166.12;  274.717;  271.979;  273.718;-0.19730
 166.72;  276.757;  272.971;  259.755; 0.00000
 167.32;  289.373;  271.656;  271.040; 0.00000
 167.93;  280.191;  261.266;  267.518;-0.48103
 168.53;  286.299;  254.112;  260.296;-0.71645
 169.13;  285.926;  264.427;  257.261; 0.00000
 169.73;  294.683;  271.677;  266.351; 0.00000
 170.33;  312.851;  291.614;  320.561; 0.13451
 170.94;  330.287;  317.756;  347.746; 0.37899
 171.54;  345.726;  335.278;  387.239; 0.69664
 172.14;  350.020;  338.926;  375.538; 0.51851
 172.74;  346.670;  324.358;  373.181; 0.34009
 173.34;  348.054;  319.589;  355.569; 0.10175
 173.95;  334.410;  309.596;  343.923; 0.14093
 174.55;  338.382;  318.289;  355.228; 0.26444
 175.15;  332.642;  320.689;  367.155; 0.58968
 175.75;  337.020;  322.370;  380.195; 0.59628
 176.35;  343.184;  332.415;  382.036; 0.66347
 176.95;  357.711;  327.740;  392.907; 0.33733
 177.56;  359.491;  327.608;  398.355; 0.34616
 178.16;  341.773;  316.738;  399.298; 0.51823
 178.76;  332.970;  316.306;  398.487; 0.69300
 179.36;  347.500;  310.874;  401.343; 0.39271
 179.96;  359.641;  304.800;  395.813; 0.22000
 180.56;  366.127;  308.938;  392.969; 0.16712
 181.17;  357.263;  318.009;  403.448; 0.33777
 181.77;  368.993;  318.897;  417.181; 0.29268
 182.37;  361.258;  306.653;  404.111; 0.25159
 182.97;  371.603;  319.309;  413.789; 0.25689
 183.57;  375.761;  323.525;  427.944; 0.30081
 184.17;  399.924;  336.736;  473.104; 0.33408
 184.78;  413.076;  316.624;  484.587; 0.24090
 185.38;  425.320;  315.012;  504.833; 0.23574
 185.98;  440.450;  315.783;  504.638; 0.18038
 186.58;  459.258;  316.598;  510.449; 0.13316
 187.18;  455.151;  313.002;  491.678; 0.09932
 187.78;  478.541;  324.256;  526.070; 0.11663
 188.38;  482.965;  331.840;  541.159; 0.14147
 188.98;  500.671;  337.804;  574.199; 0.16180
 189.59;  499.009;  332.575;  567.529; 0.14974
 190.19;  506.200;  326.870;  580.708; 0.15090
 190.79;  511.760;  326.914;  573.939; 0.12593
 191.39;  495.100;  317.159;  564.285; 0.14264
 191.99;  474.517;  322.498;  545.363; 0.16614
 192.59;  467.754;  317.307;  539.929; 0.17018
 193.19;  459.196;  313.765;  525.712; 0.16357
 193.79;  459.761;  325.164;  530.280; 0.18296
 194.39;  462.150;  328.250;  517.658; 0.15062
 195.00;  459.974;  327.216;  511.139; 0.14158
 195.60;  449.562;  305.566;  480.732; 0.08510
 196.20;  417.630;  304.088;  469.473; 0.16334
 196.80;  402.150;  305.278;  453.989; 0.18615
 197.40;  385.675;  313.686;  455.186; 0.29349
 198.00;  365.275;  320.693;  452.457; 0.47064
 198.60;  364.432;  317.270;  442.943; 0.42564
 199.20;  358.675;  312.435;  427.513; 0.39598
 199.80;  370.589;  303.957;  416.753; 0.22861
 200.40;  352.036;  299.492;  396.868; 0.26793
 201.00;  344.262;  293.841;  371.434; 0.18721
 201.60;  330.229;  292.845;  340.403; 0.10454
 202.21;  333.398;  298.995;  352.240; 0.18968
 202.81;  340.381;  303.760;  367.883; 0.24329
 203.41;  339.759;  301.801;  377.921; 0.30220
 204.01;  330.448;  296.447;  373.611; 0.35592
 204.61;  325.640;  287.965;  374.799; 0.36264
 205.21;  340.509;  280.528;  391.328; 0.26652
 205.81;  346.752;  276.000;  394.567; 0.22422
 206.41;  343.182;  281.190;  389.667; 0.24300
 207.01;  329.357;  291.585;  373.516; 0.33628
 207.61;  303.392;  290.832;  349.221; 0.66736
 208.21;  296.928;  294.007;  340.088; 1.19792
 208.81;  288.222;  285.376;  350.048; 1.35654
 209.41;  302.455;  292.971;  355.294; 0.81766
 210.01;  307.320;  286.985;  361.835; 0.56595
 210.61;  321.144;  290.534;  351.990; 0.30269
 211.21;  326.381;  293.399;  356.219; 0.27982
 211.81;  320.431;  300.157;  352.258; 0.40991
 212.41;  305.352;  301.896;  344.513; 1.09103
 213.01;  297.454;  296.332;  351.625; 1.69234
 213.61;  305.166;  285.263;  357.339; 0.55885
 214.21;  310.245;  282.939;  368.411; 0.49557
 214.81;  318.894;  278.704;  361.387; 0.31330
 215.41;  314.154;  282.466;  362.645; 0.40317
 216.01;  309.363;  278.247;  362.189; 0.43099
 216.61;  291.962;  287.920;  357.792; 1.23771
 217.21;  287.889;  290.599;  357.391; 5.00000
 217.81;  290.301;  297.221;  367.800; 5.00000
 218.41;  315.917;  301.628;  379.081; 0.73404
 219.01;  320.002;  307.801;  388.505; 0.82050
 219.61;  325.737;  301.739;  384.906; 0.53978
 220.21;  304.680;  297.568;  378.507; 1.05619
 220.81;  309.555;  283.737;  372.713; 0.53735
 221.41;  306.199;  284.091;  376.024; 0.61892
 222.01;  313.227;  280.426;  372.049; 0.44612
 222.61;  299.290;  298.953;  367.451; 2.30846
 223.21;  300.596;  301.813;  357.103; 5.00000
 223.81;  305.839;  301.952;  360.676; 1.17920
 224.41;  316.131;  281.875;  343.618; 0.25585
 225.01;  310.436;  269.317;  340.250; 0.23681
 225.61;  301.544;  274.108;  341.033; 0.38728
 226.21;  298.420;  273.112;  349.918; 0.48214
 226.81;  296.341;  286.490;  349.175; 0.80369
 227.41;  312.115;  284.059;  344.282; 0.33173
 228.01;  322.414;  302.172;  351.241; 0.38456
 228.61;  336.990;  306.727;  360.474; 0.24944
 229.21;  326.882;  303.825;  362.700; 0.40713
 229.81;  325.634;  308.998;  372.791; 0.58372
 230.41;  329.239;  299.055;  383.396; 0.44627
 231.01;  338.115;  300.808;  405.942; 0.44996
 231.61;  335.934;  287.307;  401.095; 0.36922
 232.21;  352.001;  300.328;  383.489; 0.20666
 232.81;  332.780;  296.307;  370.928; 0.31089
 233.41;  337.848;  302.578;  372.995; 0.30028
 234.00;  326.097;  298.240;  379.918; 0.46717
 234.60;  332.465;  290.487;  363.623; 0.24111
 235.20;  335.103;  295.152;  359.264; 0.20541
 235.80;  321.273;  295.330;  365.432; 0.43171
 236.40;  321.888;  302.765;  379.044; 0.60084
 237.00;  314.996;  303.584;  384.824; 0.85239
 237.60;  311.149;  294.000;  377.651; 0.68823
 238.20;  310.714;  295.121;  389.214; 0.78062
 238.80;  302.510;  274.112;  389.668; 0.60951
 239.40;  304.921;  279.177;  403.402; 0.68353
 240.00;  314.492;  284.599;  402.640; 0.59646
 240.59;  323.487;  298.133;  401.312; 0.60954
 241.19;  340.584;  297.989;  399.745; 0.37821
 241.79;  341.555;  288.710;  384.715; 0.25929
 242.39;  343.753;  292.222;  383.909; 0.25024
 242.99;  332.962;  286.642;  375.121; 0.28107
 243.59;  316.262;  289.230;  388.763; 0.56608
 244.19;  308.397;  286.160;  385.560; 0.65031
 244.79;  300.832;  287.511;  384.652; 0.86288
 245.39;  307.735;  287.293;  395.554; 0.72395
 245.98;  311.300;  273.053;  391.453; 0.49075
 246.58;  313.465;  274.487;  389.290; 0.46913
 247.18;  334.866;  285.342;  384.364; 0.30091
 247.78;  327.934;  295.696;  398.758; 0.50473
 248.38;  340.340;  288.656;  421.162; 0.40888
 248.98;  324.488;  277.356;  419.988; 0.48090
 249.58;  319.505;  265.673;  430.671; 0.48644
 250.17;  315.352;  275.285;  426.842; 0.57779
 250.77;  323.809;  283.143;  431.967; 0.56344
 251.37;  320.590;  286.929;  425.089; 0.61326
 251.97;  324.646;  270.293;  429.805; 0.46757
 252.57;  314.396;  265.298;  436.882; 0.54341
 253.17;  335.679;  272.929;  449.172; 0.44849
 253.77;  325.792;  284.186;  466.282; 0.64114
 254.36;  340.961;  295.474;  468.774; 0.58092
 254.96;  338.419;  295.333;  480.567; 0.63339
 255.56;  343.486;  288.604;  484.301; 0.55215
 256.16;  342.367;  278.462;  506.509; 0.55249
 256.76;  324.966;  277.524;  496.109; 0.66346
 257.36;  322.463;  276.735;  508.603; 0.70506
 257.95;  304.909;  264.992;  503.713; 0.77673
 258.55;  312.943;  264.239;  518.084; 0.71700
 259.15;  318.983;  260.564;  510.454; 0.63120
 259.75;  339.525;  269.345;  523.998; 0.55973
 260.35;  335.493;  267.461;  538.318; 0.60003
 260.94;  322.590;  268.819;  539.764; 0.70233
 261.54;  317.601;  275.530;  547.771; 0.81097
 262.14;  325.600;  279.723;  553.422; 0.77568
 262.74;  340.023;  296.084;  592.169; 0.82857
 263.34;  340.119;  285.302;  604.600; 0.76528
 263.93;  334.057;  271.414;  619.201; 0.74444
 264.53;  329.639;  269.158;  628.783; 0.77424
 265.13;  324.413;  270.950;  628.566; 0.82536
 265.73;  324.984;  275.426;  648.466; 0.87664
 266.33;  334.254;  278.566;  678.397; 0.85611
 266.92;  327.870;  275.029;  689.673; 0.89470
 267.52;  340.587;  279.954;  705.726; 0.84647
 268.12;  340.131;  273.264;  717.281; 0.82219
 268.72;  356.352;  281.951;  749.175; 0.79795
 269.31;  367.013;  293.596;  782.505; 0.82343
 269.91;  358.865;  296.813;  783.686; 0.89466
 270.51;  355.938;  298.884;  823.747; 0.96376
 271.11;  346.214;  296.018;  844.685; 1.03864
 271.70;  340.543;  281.274;  877.686; 1.00272
 272.30;  338.769;  270.568;  887.924; 0.95674
 272.90;  349.927;  264.784;  909.412; 0.87916
 273.50;  365.712;  274.785;  916.521; 0.84866
 274.09;  374.724;  285.359;  947.539; 0.86981
 274.69;  368.866;  293.425;  961.690; 0.94734
 275.29;  374.221;  297.126; 1011.041; 0.96662
 275.89;  365.695;  301.162; 1057.168; 1.06874
 276.48;  378.236;  306.441; 1108.365; 1.04804
 277.08;  383.541;  303.217; 1149.330; 1.02258
 277.68;  395.468;  300.562; 1156.928; 0.95537
 278.28;  405.277;  297.934; 1188.748; 0.91901
 278.87;  425.073;  305.120; 1219.213; 0.88198
 279.47;  436.886;  316.402; 1279.019; 0.90252
 280.07;  441.739;  311.564; 1306.537; 0.88328
 280.66;  441.005;  305.599; 1329.806; 0.87875
 281.26;  449.140;  299.502; 1356.605; 0.84907
 281.86;  459.666;  299.353; 1408.460; 0.84001
 282.46;  460.536;  289.111; 1464.667; 0.83617
 283.05;  479.716;  270.001; 1525.842; 0.77730
 283.65;  483.123;  269.267; 1577.248; 0.78648
 284.25;  511.893;  276.537; 1628.707; 0.75931
 284.84;  521.996;  297.639; 1660.819; 0.78361
 285.44;  544.537;  304.585; 1722.349; 0.77148
 286.04;  547.159;  306.626; 1767.304; 0.78338
 286.63;  563.397;  299.604; 1827.551; 0.76285
 287.23;  560.430;  285.934; 1878.582; 0.76358
 287.83;  577.492;  285.987; 1956.635; 0.75824
 288.42;  581.321;  282.947; 2012.456; 0.76316
 289.02;  612.214;  281.018; 2081.351; 0.73527
 289.62;  632.888;  274.153; 2105.373; 0.70797
 290.21;  677.063;  278.965; 2173.882; 0.67760
 290.81;  706.023;  296.139; 2171.832; 0.66050
 291.41;  722.136;  301.675; 2217.279; 0.65858
 292.00;  711.780;  287.695; 2273.257; 0.67043
 292.60;  711.101;  266.816; 2355.570; 0.67223
 293.20;  733.480;  269.053; 2441.953; 0.67012
 293.79;  763.391;  275.331; 2498.541; 0.65851
 294.39;  794.640;  284.326; 2544.463; 0.64630
 294.99;  822.278;  280.435; 2588.095; 0.62930
 295.58;  868.153;  284.687; 2619.961; 0.60232
 296.18;  921.096;  271.100; 2672.236; 0.56751
 296.78;  950.384;  267.474; 2741.524; 0.55905
 297.37;  966.769;  256.039; 2819.912; 0.55719
 297.97;  986.300;  255.858; 2927.442; 0.56318
 298.57; 1028.746;  262.727; 2989.557; 0.55142
 299.16; 1083.301;  278.359; 3083.789; 0.54224
 299.76; 1116.544;  281.775; 3176.366; 0.54002
 300.35; 1136.549;  281.214; 3269.362; 0.54327
 300.95; 1188.978;  278.404; 3324.462; 0.52442
 301.55; 1230.019;  287.229; 3346.846; 0.51125
 302.14; 1255.866;  278.314; 3431.366; 0.50859
 302.74; 1261.364;  277.164; 3537.862; 0.52023
 303.33; 1280.747;  277.506; 3665.575; 0.52855
 303.93; 1339.787;  284.053; 3763.621; 0.51797
 304.53; 1397.240;  290.889; 3809.743; 0.50251
 305.12; 1456.572;  285.666; 3889.067; 0.48819
 305.72; 1495.589;  304.345; 3962.749; 0.48729
 306.31; 1487.663;  292.556; 4062.826; 0.49897
 306.91; 1534.075;  290.122; 4183.574; 0.49553
 307.51; 1595.572;  280.000; 4278.734; 0.48281
 308.10; 1661.555;  295.710; 4394.048; 0.47721
 308.70; 1680.912;  291.190; 4468.751; 0.47799
 309.29; 1715.309;  287.634; 4547.826; 0.47480
 309.89; 1770.167;  264.902; 4638.675; 0.46324
 310.48; 1839.261;  273.673; 4739.754; 0.45525
 311.08; 1885.623;  268.620; 4876.118; 0.45475
 311.68; 1931.878;  273.221; 4959.384; 0.45106
 312.27; 1991.110;  278.703; 5074.278; 0.44723
 312.87; 2058.019;  271.869; 5225.848; 0.44304
 313.46; 2119.183;  276.691; 5385.013; 0.44287
 314.06; 2181.058;  276.193; 5529.885; 0.44060
 314.65; 2228.402;  282.238; 5632.559; 0.43920
 315.25; 2298.436;  283.262; 5774.255; 0.43534
 315.85; 2348.057;  277.637; 5914.876; 0.43501
 316.44; 2392.120;  287.913; 6071.938; 0.43914
 317.04; 2444.837;  295.255; 6216.984; 0.44009
 317.63; 2500.521;  310.823; 6400.341; 0.44420
 318.23; 2540.799;  298.737; 6546.296; 0.44506
 318.82; 2599.058;  293.221; 6674.883; 0.44211
 319.42; 2695.724;  273.276; 6781.545; 0.42921
 320.01; 2808.149;  280.055; 6929.646; 0.42000
 320.61; 2924.165;  290.511; 7164.652; 0.41666
 321.20; 2987.135;  285.758; 7272.939; 0.41272
 321.80; 3049.571;  292.860; 7497.718; 0.41723
 322.39; 3074.708;  275.154; 7636.540; 0.41987
 322.99; 3131.720;  275.755; 7857.556; 0.42402
 323.58; 3220.374;  286.597; 7977.531; 0.41855
 324.18; 3355.526;  287.901; 8124.673; 0.40733
 324.77; 3431.860;  292.485; 8318.013; 0.40763
 325.37; 3486.346;  278.984; 8442.167; 0.40571
 325.96; 3503.809;  276.253; 8588.958; 0.41087
 326.56; 3546.278;  298.768; 8771.095; 0.41645
 327.15; 3606.956;  300.036; 8947.778; 0.41748
 327.75; 3667.380;  300.925; 9129.536; 0.41872
 328.34; 3730.023;  272.723; 9291.838; 0.41643
 328.94; 3793.429;  266.072; 9447.905; 0.41548
 329.53; 3872.068;  277.765; 9658.876; 0.41664
 330.13; 3993.645;  293.098; 9872.460; 0.41307
 330.72; 4045.076;  297.428;10112.576; 0.41814
 331.32; 4157.574;  296.807;10347.750; 0.41553
 331.91; 4255.883;  286.021;10578.045; 0.41373
 332.51; 4425.949;  290.846;10832.428; 0.40642
 333.10; 4474.209;  280.941;11112.686; 0.41215
 333.69; 4521.390;  268.720;11343.870; 0.41569
 334.29; 4533.153;  259.020;11372.294; 0.41499
 334.88; 4576.417;  263.526;11404.218; 0.41214
 335.48; 4614.373;  274.151;11347.513; 0.40677
 336.07; 4626.572;  277.361;11521.065; 0.41250
 336.67; 4660.285;  271.793;11561.792; 0.41038
 337.26; 4706.235;  270.478;11724.744; 0.41200
 337.86; 4748.911;  274.661;11795.073; 0.41075
 338.45; 4821.057;  285.081;11996.201; 0.41193
 339.04; 4850.237;  280.248;12122.714; 0.41353
 339.64; 4943.696;  279.247;12324.855; 0.41203
 340.23; 5027.744;  276.541;12444.594; 0.40842
 340.83; 5103.484;  283.446;12579.002; 0.40670
 341.42; 5139.928;  284.034;12728.085; 0.40869
 342.02; 5147.232;  280.810;12860.717; 0.41247
 342.61; 5155.664;  285.029;12994.842; 0.41655
 343.20; 5201.840;  280.703;13173.363; 0.41828
 343.80; 5284.336;  275.024;13326.514; 0.41588
 344.39; 5387.607;  277.525;13574.777; 0.41533
 344.99; 5498.082;  284.701;13698.586; 0.41044
 345.58; 5594.494;  281.629;13941.331; 0.41011
 346.17; 5637.443;  272.425;14086.941; 0.41076
 346.77; 5680.674;  263.601;14425.499; 0.41736
 347.36; 5733.250;  267.766;14640.403; 0.41991
 347.96; 5786.255;  271.456;14918.073; 0.42421
 348.55; 5889.256;  272.039;15018.413; 0.41916
 349.14; 5925.103;  269.152;15148.264; 0.42007
 349.74; 6026.815;  282.193;15379.635; 0.41964
 350.33; 6099.464;  292.264;15619.281; 0.42149
 350.92; 6189.267;  292.029;15990.758; 0.42522
 351.52; 6320.222;  276.988;16197.719; 0.42069
 352.11; 6475.205;  277.642;16449.038; 0.41653
 352.70; 6611.635;  293.221;16652.467; 0.41316
 353.30; 6643.194;  299.069;16923.354; 0.41837
 353.89; 6664.996;  289.556;17199.826; 0.42364
 354.49; 6740.290;  295.537;17471.125; 0.42571
 355.08; 6837.742;  303.789;17648.240; 0.42398
 355.67; 6898.714;  306.509;17850.877; 0.42511
 356.27; 6913.922;  292.678;18013.082; 0.42753
 356.86; 7054.889;  288.376;18230.048; 0.42350
 357.45; 7158.838;  297.756;18507.331; 0.42391
 358.05; 7322.459;  297.214;18684.613; 0.41786
 358.64; 7350.476;  292.504;18894.298; 0.42087
 359.23; 7418.335;  289.300;19081.825; 0.42095
 359.83; 7477.227;  289.121;19433.380; 0.42542
 360.42; 7588.442;  293.174;19722.600; 0.42542
 361.01; 7664.001;  287.355;19981.487; 0.42648
 361.61; 7744.051;  287.502;20183.522; 0.42623
 362.20; 7848.248;  294.987;20496.718; 0.42725
 362.79; 7940.820;  302.910;20634.303; 0.42519
 363.38; 8051.691;  301.613;20815.514; 0.42274
 363.98; 8094.899;  289.171;20943.715; 0.42260
 364.57; 8146.334;  277.744;21176.149; 0.42422
 365.16; 8161.007;  288.573;21351.502; 0.42741
 365.76; 8179.454;  293.720;21537.287; 0.43039
 366.35; 8251.719;  294.920;21731.542; 0.43042
 366.94; 8331.645;  286.459;21913.791; 0.42947
 367.53; 8466.317;  286.426;22067.466; 0.42533
 368.13; 8545.001;  291.994;22246.489; 0.42491
 368.72; 8546.137;  285.482;22413.295; 0.42792
 369.31; 8576.539;  292.281;22597.374; 0.43015
 369.91; 8596.370;  283.382;22746.877; 0.43172
 370.50; 8741.900;  291.699;22820.059; 0.42586
 371.09; 8792.096;  278.017;22946.909; 0.42529
 371.68; 8893.848;  286.967;23106.324; 0.42346
 372.28; 8950.436;  294.984;23340.584; 0.42530
 372.87; 9061.684;  297.367;23443.502; 0.42176
 373.46; 9097.446;  297.723;23614.255; 0.42319
 374.05; 9163.689;  287.889;23758.158; 0.42231
 374.65; 9209.029;  290.440;23950.173; 0.42371
 375.24; 9199.537;  272.918;24146.349; 0.42723
 375.83; 9230.888;  275.848;24331.370; 0.42915
 376.42; 9278.736;  273.516;24515.563; 0.43007
 377.02; 9428.674;  293.907;24527.502; 0.42372
 377.61; 9497.843;  288.112;24762.668; 0.42447
 378.20; 9563.634;  297.747;24944.118; 0.42487
 378.79; 9662.735;  297.015;25086.217; 0.42272
 379.38; 9745.633;  282.191;25204.109; 0.42053
 379.98; 9841.666;  267.243;25344.469; 0.41817
 380.57; 9904.933;  272.112;25606.751; 0.41996
 381.16;10033.634;  291.609;25727.129; 0.41679
 381.75;10096.324;  289.589;25767.151; 0.41463
 382.35;10128.776;  283.703;25937.612; 0.41593
 382.94;10219.867;  271.231;26182.039; 0.41572
 383.53;10351.923;  279.541;26558.760; 0.41648
 384.12;10515.798;  269.432;26865.627; 0.41425
 384.71;10600.860;  284.069;27028.687; 0.41369
 385.31;10718.054;  287.699;27353.893; 0.41413
 385.90;10852.596;  299.731;27598.110; 0.41277
 386.49;10985.149;  283.306;27919.987; 0.41203
 387.08;11031.437;  296.763;28085.602; 0.41308
 387.67;11144.432;  302.047;28384.267; 0.41331
 388.26;11253.585;  312.463;28670.094; 0.41361
 388.86;11457.270;  297.866;29041.131; 0.41090
 389.45;11684.775;  285.685;29324.329; 0.40611
 390.04;11781.619;  279.860;29566.863; 0.40591
 390.63;11891.091;  284.795;29878.048; 0.40650
 391.22;11890.815;  294.422;30097.179; 0.40993
 391.81;12018.664;  303.408;30368.117; 0.40931
 392.41;12158.413;  324.211;30517.642; 0.40677
 393.00;12336.249;  349.022;30747.606; 0.40413
 393.59;12477.712;  379.676;31111.212; 0.40487
 394.18;12672.874;  399.780;31505.223; 0.40388
 394.77;12795.695;  433.703;31930.599; 0.40618
 395.36;12970.868;  473.557;32244.356; 0.40521
 395.95;13070.262;  524.323;32561.017; 0.40714
 396.55;13234.735;  566.236;32856.406; 0.40635
 397.14;13443.826;  594.577;33298.717; 0.40572
 397.73;13628.570;  601.786;33627.642; 0.40402
 398.32;13838.551;  612.294;34204.404; 0.40480
 398.91;14013.774;  621.039;34614.988; 0.40453
 399.50;14245.893;  632.059;35200.379; 0.40470
 400.09;14525.622;  605.452;35675.306; 0.40129
 400.68;14798.614;  582.293;36366.134; 0.40090
 401.27;15149.325;  548.561;37014.694; 0.39751
 401.87;15441.070;  525.771;37604.957; 0.39550
 402.46;15798.800;  501.053;38119.893; 0.39078
 403.05;16009.908;  484.389;38675.942; 0.39092
 403.64;16311.759;  490.521;39240.769; 0.38903
 404.23;16598.424;  484.797;39841.080; 0.38782
 404.82;16839.378;  502.588;40438.695; 0.38820
 405.41;17090.179;  491.629;41140.816; 0.38898
 406.00;17353.708;  497.890;41752.976; 0.38873
 406.59;17670.252;  479.966;42383.807; 0.38697
 407.18;17948.198;  482.149;42943.385; 0.38580
 407.77;18149.186;  466.520;43500.038; 0.38626
 408.37;18339.815;  484.641;43973.019; 0.38661
 408.96;18488.337;  491.806;44465.898; 0.38801
 409.55;18655.726;  504.476;44970.283; 0.38912
 410.14;18897.589;  481.626;45459.452; 0.38780
 410.73;19202.278;  490.299;45905.805; 0.38508
 411.32;19504.881;  492.855;46441.730; 0.38325
 411.91;19846.393;  505.687;47060.216; 0.38149
 412.50;19969.494;  480.732;47624.639; 0.38364
 413.09;20146.617;  484.505;48110.411; 0.38421
 413.68;20179.475;  482.467;48573.257; 0.38766
 414.27;20358.469;  487.472;48936.919; 0.38707
 414.86;20565.197;  462.470;49236.309; 0.38493
 415.45;20814.315;  452.555;49687.411; 0.38346
 416.04;20969.653;  462.743;50083.734; 0.38377
 416.63;21163.862;  468.551;50542.275; 0.38374
 417.22;21283.940;  461.867;50754.683; 0.38298
 417.81;21474.742;  462.159;51068.477; 0.38173
 418.40;21538.278;  476.694;51393.675; 0.38337
 418.99;21603.457;  477.832;51737.830; 0.38497
 419.58;21666.698;  462.218;51969.382; 0.38544
 420.17;21755.381;  452.952;52248.392; 0.38586
 420.76;21917.833;  458.593;52499.836; 0.38473
 421.35;22067.098;  472.988;53005.769; 0.38610
 421.94;22110.832;  474.287;53203.501; 0.38686
 422.53;22142.306;  469.601;53402.299; 0.38781
 423.12;22200.842;  471.552;53493.823; 0.38741
 423.71;22263.892;  463.366;53670.857; 0.38751
 424.30;22293.909;  471.573;53819.883; 0.38822
 424.89;22295.718;  477.611;53888.037; 0.38881
 425.48;22253.056;  477.854;53974.356; 0.39036
 426.07;22178.749;  465.438;53940.695; 0.39143
 426.66;22144.239;  460.097;54040.507; 0.39286
 427.25;22122.176;  453.014;53995.096; 0.39285
 427.84;22137.802;  450.549;53912.043; 0.39184
 428.43;22011.870;  452.848;53711.442; 0.39276
 429.02;21984.316;  457.772;53797.552; 0.39408
 429.61;21799.885;  448.720;53826.107; 0.39794
 430.20;21624.563;  425.820;53758.443; 0.40068
 430.79;21444.365;  437.001;53531.580; 0.40268
 431.38;21369.003;  442.471;53315.543; 0.40254
 431.97;21202.239;  451.391;53001.434; 0.40354
 432.55;21083.482;  445.807;52690.011; 0.40338
 433.14;20969.883;  441.412;52704.411; 0.40584
 433.73;20939.209;  432.971;52655.054; 0.40597
 434.32;20755.434;  424.624;52606.263; 0.40936
 434.91;20605.909;  423.161;52233.737; 0.40944
 435.50;20436.377;  418.064;51971.869; 0.41083
 436.09;20246.823;  418.432;51687.970; 0.41257
 436.68;19943.167;  422.559;51624.303; 0.41879
 437.27;19783.663;  439.214;51661.122; 0.42290
 437.86;19717.114;  433.576;51508.561; 0.42302
 438.45;19616.543;  436.794;51330.326; 0.42382
 439.04;19451.521;  419.148;51043.637; 0.42487
 439.62;19162.864;  412.025;51000.963; 0.43103
 440.21;19068.287;  413.441;50885.373; 0.43226
 440.80;18905.451;  430.263;51024.538; 0.43751
 441.39;18813.734;  449.560;51081.161; 0.44045
 441.98;18660.874;  447.874;51020.625; 0.44354
 442.57;18489.822;  436.530;50797.219; 0.44554
 443.16;18315.527;  425.660;50702.578; 0.44876
 443.75;18146.870;  431.481;50788.909; 0.45371
 444.33;18085.012;  435.018;50969.383; 0.45684
 444.92;17981.978;  440.355;50892.685; 0.45881
 445.51;17942.298;  417.614;50850.986; 0.45907
 446.10;17820.206;  410.612;51056.876; 0.46376
 446.69;17799.550;  404.712;51275.545; 0.46605
 447.28;17646.736;  420.929;51457.726; 0.47170
 447.87;17482.730;  412.657;51329.383; 0.47463
 448.45;17304.436;  413.036;51412.748; 0.47990
 449.04;17145.006;  390.874;51445.980; 0.48392
 449.63;17130.989;  386.972;51646.289; 0.48591
 450.22;17028.169;  381.501;51835.467; 0.49009
 450.81;16993.921;  386.090;52100.884; 0.49330
 451.40;16724.835;  391.666;52058.120; 0.50014
 451.98;16630.128;  398.229;52052.065; 0.50273
 452.57;16531.534;  403.856;52211.469; 0.50682
 453.16;16441.754;  401.626;52273.023; 0.50972
 453.75;16344.777;  391.994;52359.708; 0.51290
 454.34;16183.092;  388.814;52215.013; 0.51605
 454.93;16112.787;  395.232;52494.699; 0.52045
 455.51;15874.978;  391.805;52615.216; 0.52801
 456.10;15761.881;  402.670;52907.445; 0.53383
 456.69;15704.152;  396.116;53041.712; 0.53644
 457.28;15757.310;  403.304;53288.203; 0.53711
 457.87;15679.112;  395.902;53216.666; 0.53859
 458.45;15511.489;  396.108;53304.691; 0.54411
 459.04;15416.522;  388.965;53401.373; 0.54749
 459.63;15325.634;  395.666;53676.141; 0.55251
 460.22;15256.961;  396.420;53639.128; 0.55423
 460.80;15079.645;  400.600;53692.823; 0.55997
 461.39;15009.713;  392.483;53895.895; 0.56352
 461.98;15012.949;  393.792;54364.115; 0.56723
 462.57;15129.129;  398.874;54782.941; 0.56726
 463.16;15125.472;  397.668;55197.607; 0.57064
 463.74;15105.410;  387.726;55673.212; 0.57477
 464.33;14982.637;  376.102;56213.777; 0.58238
 464.92;14941.586;  370.427;56547.398; 0.58606
 465.51;14966.236;  357.831;56911.710; 0.58786
 466.09;14985.765;  358.204;57352.888; 0.59066
 466.68;15030.995;  361.518;57898.436; 0.59353
 467.27;14983.532;  372.331;58292.638; 0.59814
 467.86;14882.295;  368.243;58560.733; 0.60308
 468.44;14842.153;  363.094;58919.922; 0.60684
 469.03;14852.718;  361.882;59322.152; 0.60947
 469.62;14945.949;  367.807;59788.037; 0.61023
 470.20;14953.592;  365.300;60231.337; 0.61318
 470.79;14968.117;  374.762;60677.863; 0.61618
 471.38;14954.089;  358.816;61146.166; 0.61960
 471.97;15019.987;  359.020;61564.389; 0.62063
 472.55;15031.614;  350.111;61933.679; 0.62269
 473.14;15090.540;  362.234;62406.602; 0.62455
 473.73;15083.488;  355.473;62971.535; 0.62854
 474.31;15124.080;  347.428;63489.444; 0.63074
 474.90;15143.220;  350.797;63899.238; 0.63307
 475.49;15190.559;  352.737;64160.914; 0.63351
 476.07;15239.628;  357.870;64473.326; 0.63431
 476.66;15276.146;  347.892;64752.829; 0.63491
 477.25;15207.665;  340.581;65000.332; 0.63841
 477.84;15137.195;  352.761;65155.193; 0.64179
 478.42;15020.619;  344.733;65155.945; 0.64505
 479.01;14976.675;  344.681;65156.001; 0.64635
 479.60;14984.189;  330.210;65156.511; 0.64580
 480.18;14948.279;  334.265;65158.257; 0.64697
 480.77;14951.510;  342.135;65159.480; 0.64706
 481.35;14876.069;  347.900;65159.373; 0.64944
 481.94;14875.883;  344.738;65159.188; 0.64937
 482.53;14878.622;  335.059;65159.923; 0.64907
 483.11;14782.080;  332.000;65160.709; 0.65190
 483.70;14802.096;  318.067;65161.719; 0.65098
 484.29;14681.378;  316.585;65163.324; 0.65459
 484.87;14627.936;  306.461;65164.542; 0.65598
 485.46;14515.332;  315.710;65164.272; 0.65962
 486.05;14495.304;  319.958;65162.920; 0.66033
 486.63;14493.972;  321.237;65162.258; 0.66040
 487.22;14438.293;  317.302;65162.909; 0.66202
 487.81;14320.428;  323.288;65164.368; 0.66581
 488.39;14243.202;  331.856;65164.474; 0.66842
 488.98;14124.457;  337.207;65163.733; 0.67228
 489.56;14017.857;  317.228;65164.794; 0.67515
 490.15;13871.777;  310.772;65166.371; 0.67966
 490.74;13719.200;  302.771;65167.454; 0.68437
 491.32;13579.199;  305.937;65168.774; 0.68902
 491.91;13388.492;  316.111;64974.057; 0.69427
 492.49;13244.080;  317.823;64712.314; 0.69738
 493.08;13081.561;  332.939;64167.133; 0.69959
 493.67;12956.646;  325.500;63724.219; 0.70064
 494.25;12798.278;  343.920;63105.848; 0.70237
 494.84;12629.854;  335.724;62474.087; 0.70366
 495.42;12503.193;  338.386;61959.759; 0.70463
 496.01;12327.085;  319.873;61399.648; 0.70646
 496.59;12140.554;  310.443;60754.114; 0.70836
 497.18;12011.255;  311.106;60078.479; 0.70827
 497.77;11842.084;  311.733;59331.632; 0.70916
 498.35;11738.920;  326.966;58841.796; 0.70991
 498.94;11548.672;  324.499;58030.218; 0.71106
 499.52;11476.643;  324.914;57567.186; 0.71037
 500.11;11389.399;  311.275;56906.600; 0.70831
 500.69;11327.044;  304.601;56449.246; 0.70703
 501.28;11227.840;  315.149;55764.708; 0.70597
 501.86;11107.257;  317.653;55155.772; 0.70608
 502.45;10968.860;  338.264;54632.693; 0.70820
 503.03;10875.487;  328.939;54106.656; 0.70749
 503.62;10864.912;  339.385;53665.090; 0.70469
 504.20;10819.793;  326.215;53123.968; 0.70169
 504.79;10789.979;  326.766;52666.148; 0.69916
 505.37;10680.697;  326.582;52358.543; 0.70116
 505.96;10674.585;  332.269;51859.105; 0.69742
 506.55;10663.652;  327.706;51491.158; 0.69461
 507.13;10735.231;  315.837;51254.709; 0.68921
 507.72;10804.919;  312.954;51138.387; 0.68522
 508.30;10897.491;  319.265;50944.634; 0.67996
 508.89;11001.005;  316.460;50626.145; 0.67290
 509.47;11125.586;  308.593;50383.056; 0.66551
 510.05;11205.739;  311.037;50305.214; 0.66170
 510.64;11283.062;  312.992;50205.541; 0.65783
 511.22;11402.339;  326.961;50242.492; 0.65388
 511.81;11620.701;  323.186;50282.527; 0.64563
 512.39;11846.453;  329.747;50266.280; 0.63709
 512.98;11994.622;  310.647;50213.110; 0.63053
 513.56;12159.474;  306.947;50200.284; 0.62423
 514.15;12388.705;  297.484;50225.841; 0.61588
 514.73;12628.869;  293.306;50310.339; 0.60796
 515.32;12889.575;  298.909;50412.714; 0.59991
 515.90;13022.332;  306.909;50529.464; 0.59657
 516.49;13240.472;  321.223;50576.262; 0.58994
 517.07;13492.020;  323.415;50501.804; 0.58098
 517.66;13743.172;  325.663;50468.951; 0.57254
 518.24;13963.664;  330.491;50581.443; 0.56655
 518.82;14111.336;  322.791;50433.118; 0.56041
 519.41;14353.799;  321.449;50483.238; 0.55324
 519.99;14621.848;  304.901;50520.942; 0.54499
 520.58;14971.424;  313.039;50964.514; 0.53851
 521.16;15234.770;  316.114;51139.212; 0.53233
 521.75;15523.055;  315.579;51354.849; 0.52585
 522.33;15819.381;  314.722;51552.832; 0.51913
 522.91;16139.346;  303.280;51724.449; 0.51149
 523.50;16485.990;  304.661;51708.091; 0.50198
 524.08;16745.091;  292.957;51816.521; 0.49578
 524.67;17130.735;  296.699;52029.160; 0.48757
 525.25;17360.215;  294.898;52244.306; 0.48347
 525.83;17639.922;  300.195;52281.679; 0.47681
 526.42;17899.565;  299.604;52255.985; 0.47013
 527.00;18236.559;  297.414;52315.968; 0.46236
 527.59;18457.321;  293.742;52194.390; 0.45597
 528.17;18696.394;  296.702;52169.461; 0.45013
 528.75;18965.716;  314.407;52237.781; 0.44465
 529.34;19311.140;  317.963;52410.206; 0.43818
 529.92;19634.965;  322.096;52599.701; 0.43247
 530.50;19875.021;  308.099;52577.086; 0.42672
 531.09;20088.524;  310.277;52580.588; 0.42207
 531.67;20342.005;  319.699;52493.409; 0.41594
 532.25;20630.219;  331.224;52474.618; 0.40972
 532.84;20877.687;  319.265;52286.406; 0.40274
 533.42;21045.071;  303.579;52069.121; 0.39720
 534.00;21114.563;  296.379;51800.283; 0.39340
 534.59;21257.970;  306.923;51692.027; 0.38963
 535.17;21391.907;  307.396;51484.292; 0.38511
 535.75;21635.307;  311.833;51399.345; 0.37946
 536.34;21817.273;  327.170;51106.314; 0.37345
 536.92;21971.641;  323.362;50970.357; 0.36913
 537.50;22061.985;  320.767;50555.361; 0.36372
 538.09;22156.900;  304.234;50224.272; 0.35877
 538.67;22213.992;  307.957;49849.711; 0.35441
 539.25;22279.518;  292.004;49517.578; 0.35001
 539.84;22403.042;  298.382;49195.084; 0.34480
 540.42;22452.052;  287.620;48747.408; 0.33972
 541.00;22544.589;  304.712;48328.615; 0.33433
 541.59;22649.448;  293.453;47996.146; 0.32915
 542.17;22709.283;  303.713;47681.974; 0.32522
 542.75;22842.068;  301.687;47449.085; 0.32050
 543.33;22911.413;  321.928;47035.436; 0.31554
 543.92;23045.109;  322.791;46647.473; 0.30936
 544.50;23056.640;  319.637;46212.001; 0.30501
 545.08;23095.046;  303.653;45900.067; 0.30116
 545.67;23245.170;  304.594;45544.519; 0.29492
 546.25;23357.582;  306.855;45243.598; 0.28992
 546.83;23436.542;  305.919;44881.223; 0.28491
 547.41;23431.282;  307.185;44485.963; 0.28115
 548.00;23408.401;  304.048;44073.416; 0.27748
 548.58;23475.666;  293.554;43651.340; 0.27191
 549.16;23597.966;  273.252;43462.973; 0.26756
 549.74;23719.999;  276.221;43125.006; 0.26191
 550.33;23765.688;  287.338;42789.017; 0.25774
 550.91;23697.812;  287.502;42328.145; 0.25426
 551.49;23767.723;  275.114;42084.067; 0.25034
 552.07;23857.333;  281.527;41894.675; 0.24676
 552.66;24065.581;  296.715;41696.915; 0.24099
 553.24;24139.468;  301.874;41407.799; 0.23664
 553.82;24205.066;  287.046;41262.389; 0.23380
 554.40;24337.325;  287.502;41018.645; 0.22881
 554.98;24488.535;  286.839;40927.197; 0.22511
 555.57;24576.106;  295.511;40724.442; 0.22143
 556.15;24723.191;  295.794;40729.857; 0.21887
 556.73;24791.863;  289.872;40584.856; 0.21605
 557.31;25016.110;  280.087;40487.094; 0.21097
 557.89;25041.918;  267.680;40402.230; 0.20952
 558.48;25148.506;  270.725;40389.487; 0.20754
 559.06;25302.991;  269.279;40492.969; 0.20596
 559.64;25551.715;  288.172;40421.363; 0.20101
 560.22;25843.845;  308.276;40298.501; 0.19481
 560.80;25939.116;  311.749;40155.433; 0.19166
 561.39;26020.166;  300.174;40123.139; 0.18986
 561.97;26167.499;  304.256;40118.465; 0.18736
 562.55;26400.956;  305.864;40159.584; 0.18391
 563.13;26723.188;  307.652;40244.814; 0.17952
 563.71;26979.703;  295.320;40343.674; 0.17633
 564.29;27161.195;  296.315;40286.513; 0.17277
 564.88;27305.726;  280.495;40218.374; 0.16962
 565.46;27408.132;  277.260;40267.767; 0.16849
 566.04;27603.940;  269.464;40338.574; 0.16610
 566.62;27863.149;  292.162;40520.457; 0.16408
 567.20;28103.036;  292.265;40647.678; 0.16169
 567.78;28299.443;  300.170;40851.754; 0.16086
 568.36;28490.443;  300.837;41002.754; 0.15953
 568.94;28707.550;  296.460;41004.189; 0.15619
 569.53;29076.222;  295.816;41099.192; 0.15160
 570.11;29238.855;  283.902;41113.488; 0.14925
 570.69;29441.284;  278.869;41248.245; 0.14764
 571.27;29553.301;  279.854;41227.262; 0.14575
 571.85;29803.594;  279.584;41295.220; 0.14277
 572.43;30138.599;  299.078;41479.213; 0.13990
 573.01;30254.920;  288.199;41566.526; 0.13908
 573.59;30355.729;  284.931;41522.011; 0.13714
 574.17;30335.019;  270.419;41423.650; 0.13635
 574.76;30544.788;  278.826;41529.098; 0.13447
 575.34;30767.686;  274.920;41725.997; 0.13334
 575.92;31000.211;  271.771;41808.186; 0.13089
 576.50;31189.528;  265.398;41828.507; 0.12841
 577.08;31312.737;  261.206;41866.048; 0.12706
 577.66;31468.052;  250.776;41875.013; 0.12495
 578.24;31590.871;  252.747;41879.155; 0.12330
 578.82;31772.295;  257.942;41897.583; 0.12100
 579.40;31941.922;  266.978;41903.210; 0.11876
 579.98;32132.340;  273.567;41841.961; 0.11553
 580.56;32219.029;  281.852;41853.319; 0.11450
 581.14;32264.877;  291.659;41917.834; 0.11458
 581.72;32402.289;  280.280;42082.244; 0.11439
 582.30;32615.187;  273.151;42074.467; 0.11142
 582.88;32818.673;  274.650;42152.288; 0.10951
 583.46;33000.865;  282.363;42189.821; 0.10750
 584.04;33179.160;  282.956;42171.457; 0.10495
 584.62;33413.522;  265.125;42197.830; 0.10209
 585.21;33389.126;  267.265;42241.428; 0.10287
 585.79;33361.713;  273.754;42392.009; 0.10480
 586.37;33514.013;  277.118;42415.309; 0.10306
 586.95;33842.508;  275.522;42455.787; 0.09920
 587.53;34167.219;  269.979;42469.819; 0.09515
 588.11;34217.988;  278.442;42585.262; 0.09570
 588.69;34275.916;  282.733;42557.865; 0.09469
 589.27;34411.193;  283.424;42506.477; 0.09244
 589.85;34569.989;  276.026;42443.602; 0.08976
 590.43;34704.328;  271.715;42599.939; 0.08966
 591.01;34765.571;  278.076;42722.853; 0.09016
 591.59;34842.995;  288.299;42936.945; 0.09140
 592.16;34965.373;  287.924;42891.657; 0.08940
 592.74;35118.768;  291.617;42886.045; 0.08743
 593.32;35113.016;  293.193;42739.948; 0.08602
 593.90;35198.038;  297.895;42708.966; 0.08465
 594.48;35256.773;  288.777;42603.037; 0.08282
 595.06;35520.870;  285.245;42684.475; 0.08038
 595.64;35718.633;  272.769;42709.242; 0.07817
 596.22;35634.531;  276.890;42757.472; 0.07971
 596.80;35640.016;  268.138;42505.619; 0.07704
 597.38;35468.293;  264.245;42457.558; 0.07865
 597.96;35653.976;  262.869;42299.911; 0.07474
 598.54;35601.468;  268.057;42320.734; 0.07561
 599.12;35698.479;  272.769;42174.074; 0.07291
 599.70;35617.361;  272.156;42133.628; 0.07348
 600.28;35582.276;  269.178;41999.881; 0.07252
 600.86;35534.971;  273.568;41898.236; 0.07205
 601.44;35486.389;  279.130;41816.989; 0.07181
 602.02;35557.383;  273.135;41601.984; 0.06867
 602.59;35558.903;  269.019;41487.164; 0.06744
 603.17;35603.056;  254.435;41427.991; 0.06625
 603.75;35521.757;  264.600;41407.036; 0.06704
 604.33;35412.091;  268.544;41269.041; 0.06694
 604.91;35318.696;  272.574;41056.648; 0.06585
 605.49;35277.786;  271.546;40985.067; 0.06559
 606.07;35205.943;  254.900;40828.877; 0.06479
 606.65;35095.434;  260.422;40696.701; 0.06476
 607.23;34949.204;  264.441;40448.820; 0.06392
 607.80;34946.758;  277.156;40221.379; 0.06151
 608.38;34878.525;  277.256;40025.464; 0.06023
 608.96;34804.400;  285.786;39921.000; 0.06003
 609.54;34525.780;  288.246;39743.725; 0.06160
 610.12;34339.763;  283.928;39528.375; 0.06159
 610.70;34105.671;  273.259;39095.265; 0.05975
 611.28;33953.134;  259.195;38813.390; 0.05852
 611.85;33758.977;  265.841;38433.913; 0.05674
 612.43;33515.350;  260.695;38304.961; 0.05844
 613.01;33360.220;  263.202;38019.161; 0.05720
 613.59;33202.174;  249.299;37795.112; 0.05667
 614.17;33149.808;  240.914;37668.085; 0.05587
 614.75;32947.593;  222.778;37521.205; 0.05681
 615.32;32770.169;  209.277;37291.775; 0.05647
 615.90;32490.294;  219.080;36866.572; 0.05523
 616.48;32419.706;  232.952;36658.988; 0.05373
 617.06;32102.542;  255.157;36308.488; 0.05387
 617.64;31802.531;  246.140;36072.812; 0.05512
 618.22;31503.238;  241.049;35666.522; 0.05430
 618.79;31265.007;  228.178;35515.632; 0.05574
 619.37;31128.391;  227.104;35180.352; 0.05351
 619.95;30808.322;  231.387;34894.600; 0.05447
 620.53;30659.220;  218.869;34491.494; 0.05150
 621.11;30466.018;  206.529;34156.975; 0.04998
 621.68;30329.741;  201.116;33920.700; 0.04890
 622.26;30222.492;  202.843;33803.106; 0.04894
 622.84;30071.429;  212.594;33643.042; 0.04907
 623.42;29939.125;  214.208;33340.072; 0.04705
 623.99;29671.876;  232.130;33128.823; 0.04822
 624.57;29494.594;  239.695;32874.211; 0.04748
 625.15;29263.995;  249.244;32723.283; 0.04892
 625.73;29160.159;  235.066;32483.448; 0.04723
 626.30;28963.503;  228.444;32290.122; 0.04757
 626.88;28859.317;  228.031;32032.596; 0.04565
 627.46;28635.498;  230.061;31766.787; 0.04542
 628.04;28527.262;  242.419;31549.234; 0.04409
 628.61;28287.132;  241.899;31249.103; 0.04360
 629.19;27940.780;  244.829;31015.066; 0.04571
 629.77;27645.142;  231.831;30736.758; 0.04641
 630.35;27368.239;  234.217;30562.869; 0.04834
 630.92;27359.951;  232.092;30375.921; 0.04578
 631.50;27221.167;  220.757;30199.145; 0.04544
 632.08;27084.698;  206.521;29949.680; 0.04399
 632.66;26864.149;  196.801;29744.460; 0.04454
 633.23;26692.783;  216.776;29426.430; 0.04267
 633.81;26437.042;  225.566;29138.020; 0.04259
 634.39;26182.787;  220.298;28844.754; 0.04239
 634.96;26005.826;  221.956;28624.791; 0.04201
 635.54;25933.585;  216.680;28606.896; 0.04295
 636.12;25762.981;  214.735;28334.976; 0.04166
 636.69;25578.269;  204.526;28222.591; 0.04305
 637.27;25365.189;  199.403;27913.834; 0.04190
 637.85;25238.421;  217.219;27696.062; 0.04069
 638.42;25008.680;  206.286;27392.989; 0.03986
 639.00;24819.806;  223.367;27259.457; 0.04107
 639.58;24620.286;  209.789;26981.612; 0.04010
 640.15;24393.808;  222.891;26790.445; 0.04106
 640.73;24256.256;  204.119;26492.226; 0.03861
 641.31;24200.371;  216.013;26471.006; 0.03928
 641.88;24092.819;  210.908;26285.787; 0.03815
 642.46;23902.600;  226.803;26132.901; 0.03910
 643.04;23667.048;  214.697;25934.349; 0.04008
 643.61;23557.163;  223.925;25817.463; 0.04016
 644.19;23423.945;  209.153;25659.577; 0.03993
 644.77;23273.393;  224.048;25468.358; 0.03950
 645.34;23156.841;  211.943;25293.805; 0.03867
 645.92;23148.956;  214.504;25070.586; 0.03494
 646.49;23045.404;  218.399;24938.033; 0.03459
 647.07;22898.852;  220.293;24745.814; 0.03400
 647.65;22726.967;  224.188;24564.928; 0.03410
 648.22;22551.415;  218.082;24391.042; 0.03438
 648.80;22467.530;  227.310;24368.156; 0.03561
 649.37;22303.978;  227.872;24339.937; 0.03831
 649.95;22320.759;  227.433;24242.051; 0.03621
 650.53;22193.541;  209.328;24121.165; 0.03650
 651.10;22143.656;  214.222;24054.279; 0.03628
 651.68;22037.770;  211.450;24020.060; 0.03775
 652.25;22010.885;  221.012;23899.174; 0.03609
 652.83;21933.333;  211.573;23700.955; 0.03398
 653.41;21868.448;  208.468;23524.069; 0.03199
 653.98;21785.563;  212.362;23340.850; 0.03023
 654.56;21591.344;  211.590;23307.630; 0.03353
 655.13;21550.126;  208.818;23285.744; 0.03396
 655.71;21441.907;  207.379;23284.525; 0.03614
 656.28;21485.689;  194.941;23185.639; 0.03336
 656.86;21318.137;  188.169;22962.753; 0.03255
 657.43;21261.252;  190.397;22872.868; 0.03201
 658.01;21184.033;  212.958;22793.315; 0.03211
 658.58;21184.148;  207.519;22876.096; 0.03369
 659.16;21156.596;  211.747;22798.876; 0.03278
 659.74;21153.378;  196.309;22777.324; 0.03241
 660.31;21086.826;  204.203;22714.438; 0.03259
 660.89;20951.607;  198.098;22687.885; 0.03489
 661.46;20849.055;  206.659;22545.999; 0.03431
 662.04;20848.170;  208.554;22516.780; 0.03376
 662.61;20907.952;  207.448;22500.894; 0.03220
 663.19;20835.400;  206.676;22626.342; 0.03616
 663.76;20838.515;  209.571;22600.456; 0.03559
 664.34;20893.296;  211.132;22526.237; 0.03300
 664.91;21052.411;  214.027;22413.684; 0.02748
 665.49;21072.192;  216.922;22441.798; 0.02762
 666.06;21105.307;  213.150;22513.246; 0.02832
 666.64;21138.089;  212.044;22555.693; 0.02847
 667.21;21174.204;  216.606;22500.140; 0.02664
 667.79;21101.985;  204.167;22400.588; 0.02618
 668.36;21005.433;  201.395;22402.702; 0.02823
 668.93;21001.548;  202.290;22421.149; 0.02867
 669.51;20961.329;  198.184;22426.263; 0.02961
 670.08;20938.778;  192.412;22387.044; 0.02931
 670.66;20835.892;  189.307;22273.825; 0.02924
 671.23;21011.007;  213.201;22361.606; 0.02732
 671.81;21046.455;  219.763;22403.720; 0.02742
 672.38;21109.903;  224.324;22501.167; 0.02801
 672.96;20959.352;  213.552;22510.281; 0.03131
 673.53;21003.800;  213.113;22482.395; 0.02984
 674.10;21000.581;  213.008;22524.843; 0.03073
 674.68;21055.696;  228.236;22505.290; 0.02922
 675.25;20976.811;  221.131;22417.404; 0.02914
 675.83;20948.259;  215.692;22370.185; 0.02881
 676.40;20922.374;  203.253;22300.299; 0.02796
 676.98;20923.489;  209.148;22323.413; 0.02840
 677.55;20852.603;  210.043;22281.527; 0.02907
 678.12;20807.385;  223.937;22260.975; 0.02964
 678.70;20767.166;  221.832;22236.089; 0.02999
 679.27;20840.948;  229.060;22163.870; 0.02702
 679.85;20848.063;  216.621;22124.984; 0.02608
 680.42;20886.177;  216.516;22133.431; 0.02545
 680.99;20862.292;  192.744;22099.212; 0.02524
 681.57;20791.740;  198.305;22028.659; 0.02533
 682.14;20797.855;  205.866;21848.773; 0.02162
 682.71;20667.970;  210.761;21795.554; 0.02330
 683.29;20596.418;  200.656;21706.668; 0.02302
 683.86;20401.866;  185.884;21546.116; 0.02391
 684.43;20351.981;  198.112;21362.230; 0.02124
 685.01;20227.096;  197.006;21197.011; 0.02054
 685.58;20186.211;  206.234;21272.458; 0.02299
 686.16;20127.992;  206.462;21269.239; 0.02419
 686.73;20182.774;  215.023;21397.686; 0.02565
 687.30;20136.555;  207.585;21388.467; 0.02646
 687.88;20106.003;  217.479;21321.914; 0.02577
 688.45;20035.451;  210.707;21118.362; 0.02310
 689.02;19941.233;  213.602;21022.142; 0.02317
 689.60;19874.014;  190.497;20889.257; 0.02184
 690.17;19829.129;  199.391;20926.704; 0.02363
 690.74;19783.244;  189.619;20805.485; 0.02209
 691.31;19737.359;  204.181;20824.932; 0.02353
 691.89;19576.140;  191.742;20754.713; 0.02563
 692.46;19538.588;  212.637;20700.494; 0.02536
 693.03;19534.370;  229.198;20611.941; 0.02359
 693.61;19504.151;  234.759;20426.722; 0.02031
 694.18;19416.600;  237.320;20424.503; 0.02224
 694.75;19294.048;  206.882;20414.950; 0.02478
 695.32;19278.829;  208.110;20458.064; 0.02606
 695.90;19211.277;  203.004;20312.512; 0.02446
 696.47;19088.059;  203.899;20210.626; 0.02508
 697.04;19056.174;  214.460;20060.073; 0.02254
 697.62;19031.622;  213.355;20039.187; 0.02265
 698.19;19070.070;  229.250;19951.301; 0.01985
 698.76;19048.518;  211.144;19960.082; 0.02052
 699.33;18999.633;  210.706;19883.196; 0.01996
 699.91;18949.748;  196.600;19795.977; 0.01917
 700.48;18786.862;  206.162;19674.091; 0.02026
 701.05;18764.311;  208.056;19645.538; 0.02015
 701.62;18617.092;  232.951;19536.652; 0.02120
 702.20;18620.540;  235.179;19463.767; 0.01948
 702.77;18524.988;  232.073;19314.881; 0.01836
 703.34;18559.436;  217.301;19303.995; 0.01728
 703.91;18420.885;  214.196;19161.775; 0.01732
 704.48;18408.666;  220.091;19054.223; 0.01515
 705.06;18289.114;  212.652;18964.004; 0.01592
 705.63;18267.562;  221.213;18940.118; 0.01589
 706.20;18164.677;  214.441;18934.565; 0.01824
 706.77;18062.125;  221.336;18864.679; 0.01911
 707.34;18003.240;  215.564;18821.793; 0.01954
 707.92;17913.688;  205.792;18710.907; 0.01912
 708.49;17762.470;  193.353;18575.022; 0.01964
 709.06;17659.251;  193.248;18466.136; 0.01961
 709.63;17629.366;  194.476;18431.916; 0.01954
 710.20;17681.814;  191.037;18446.697; 0.01859
 710.77;17687.596;  187.932;18338.145; 0.01585
 711.35;17714.044;  185.826;18305.592; 0.01441
 711.92;17809.159;  205.721;18271.706; 0.01126
 712.49;17872.940;  207.616;18372.487; 0.01211
 713.06;17807.055;  215.844;18405.934; 0.01454
 713.63;17790.170;  209.405;18498.382; 0.01715
 714.20;17743.618;  212.300;18556.829; 0.01969
 714.78;17724.066;  209.528;18487.277; 0.01852
 715.35;17647.181;  205.756;18407.724; 0.01854
 715.92;17694.962;  207.317;18351.838; 0.01601
 716.49;17727.744;  222.545;18343.285; 0.01501
 717.06;17769.192;  226.106;18273.400; 0.01231
 717.63;17690.640;  217.334;18198.847; 0.01245
 718.20;17658.421;  210.895;18175.294; 0.01268
 718.77;17537.870;  224.790;18170.075; 0.01558
 719.35;17524.318;  226.351;18153.189; 0.01551
 719.92;17398.433;  211.913;18038.303; 0.01588
 720.49;17401.881;  197.474;17879.084; 0.01188
 721.06;17209.329;  177.369;17774.532; 0.01418
 721.63;17185.777;  190.930;17799.979; 0.01542
 722.20;17168.892;  195.825;17861.426; 0.01737
 722.77;17194.673;  203.386;17825.540; 0.01583
 723.34;17197.121;  196.947;17821.321; 0.01566
 723.91;17089.569;  205.509;17813.102; 0.01822
 724.48;17095.684;  222.070;17777.883; 0.01721
 725.05;17079.799;  212.964;17617.997; 0.01364
 725.62;17019.581;  195.192;17490.778; 0.01200
 726.20;16977.695;  186.754;17461.892; 0.01235
 726.77;16956.144;  192.982;17446.339; 0.01252
 727.34;17011.258;  199.210;17412.787; 0.01025
 727.91;16910.706;  209.104;17361.567; 0.01157
 728.48;16922.488;  214.999;17354.015; 0.01107
 729.05;16954.269;  215.560;17353.795; 0.01024
 729.62;17054.051;  192.788;17320.910; 0.00682
 730.19;16962.499;  185.683;17297.024; 0.00857
 730.76;16884.281;  188.578;17324.138; 0.01129
 731.33;16815.729;  211.472;17306.252; 0.01264
 731.90;16828.177;  215.034;17274.033; 0.01150
 732.47;16741.292;  206.261;17242.147; 0.01296
 733.04;16680.073;  191.156;17245.594; 0.01465
 733.61;16537.855;  168.051;17256.042; 0.01865
 734.18;16524.969;  173.945;17191.156; 0.01734
 734.75;16437.418;  184.507;17077.270; 0.01677
 735.32;16493.199;  211.401;16955.384; 0.01216
 735.89;16418.647;  203.963;16851.831; 0.01145
 736.46;16434.095;  212.191;16734.945; 0.00798
 737.03;16334.543;  203.085;16674.393; 0.00905
 737.60;16309.658;  203.647;16580.840; 0.00725
 738.17;16097.773;  173.208;16558.621; 0.01239
 738.74;15981.888;  184.103;16523.735; 0.01465
 739.31;15841.003;  185.331;16430.849; 0.01606
 739.88;15889.117;  195.225;16300.630; 0.01124
 740.45;15797.232;  176.120;16234.411; 0.01199
 741.02;15892.680;  174.348;16293.858; 0.01095
 741.59;15851.462;  171.909;16337.305; 0.01325
 742.15;15925.910;  177.804;16325.753; 0.01089
 742.72;15868.691;  185.365;16376.867; 0.01385
 743.29;15899.473;  187.593;16351.648; 0.01232
 743.86;15801.254;  195.154;16298.095; 0.01361
 744.43;15762.036;  197.049;16220.543; 0.01261
 745.00;15736.817;  201.277;16240.323; 0.01385
 745.57;15796.266;  209.172;16261.771; 0.01278
 746.14;15805.047;  201.733;16198.552; 0.01082
 746.71;15849.162;  208.294;16179.666; 0.00908
 747.28;15893.610;  196.522;16170.446; 0.00759
 747.85;15885.725;  172.417;16124.227; 0.00654
 748.42;15892.173;  173.645;16103.675; 0.00580
 748.98;15872.621;  177.206;16075.455; 0.00558
 749.55;15844.736;  197.767;16011.569; 0.00461
 750.12;15723.184;  197.662;16015.683; 0.00811
 750.69;15721.299;  204.890;15955.131; 0.00650
 751.26;15631.080;  216.118;15910.245; 0.00779
 751.83;15665.195;  206.013;15821.026; 0.00436
 752.40;15509.310;  204.907;15769.807; 0.00733
 752.97;15514.758;  192.802;15780.587; 0.00747
 753.53;15408.539;  195.697;15773.035; 0.01028
 754.10;15424.654;  187.925;15706.815; 0.00797
 754.67;15408.436;  185.486;15666.263; 0.00729
 755.24;15414.551;  192.714;15616.044; 0.00571
 755.81;15390.665;  200.608;15583.491; 0.00548
 756.38;15310.780;  223.503;15510.272; 0.00570
 756.94;15228.895;  215.064;15482.386; 0.00727
 757.51;15158.343;  204.292;15502.833; 0.00989
 758.08;15112.791;  196.520;15545.281; 0.01241
 758.65;15030.239;  213.748;15443.728; 0.01195
 759.22;14931.688;  220.643;15351.176; 0.01221
 759.79;14802.136;  205.538;15180.623; 0.01112
 760.35;14661.584;  191.432;15130.404; 0.01385
 760.92;14538.032;  201.994;14987.518; 0.01341
 761.49;14464.147;  208.555;14849.965; 0.01160
 762.06;14434.928;  211.783;14641.079; 0.00625
 762.63;14359.710;  201.011;14500.527; 0.00430
 763.19;14244.825;  203.239;14469.641; 0.00690
 763.76;14143.273;  215.133;14423.422; 0.00865
 764.33;14061.721;  219.695;14294.202; 0.00723
 764.90;13933.169;  218.589;14107.650; 0.00549
 765.46;13761.617;  197.817;13914.097; 0.00485
 766.03;13598.065;  196.045;13749.878; 0.00489
 766.60;13430.180;  197.940;13624.992; 0.00635
 767.17;13303.295;  205.501;13465.773; 0.00535
 767.73;13123.076;  207.063;13413.220; 0.00965
 768.30;12961.858;  206.624;13205.001; 0.00820
 768.87;12734.306;  215.185;13045.782; 0.01067
 769.44;12593.087;  213.413;12836.229; 0.00845
 770.00;12450.536;  215.975;12686.677; 0.00830
 770.57;12356.317;  216.536;12525.791; 0.00602
 771.14;12193.099;  213.430;12350.238; 0.00566
 771.71;11961.213;  198.325;12122.686; 0.00592
 772.27;11705.995;  206.220;11935.800; 0.00859
 772.84;11476.110;  209.448;11715.914; 0.00915
 773.41;11343.224;  213.676;11595.695; 0.00974
 773.97;11227.006;  205.904;11440.809; 0.00834
 774.54;11109.121;  213.798;11314.923; 0.00813
 775.11;10908.236;  232.360;11227.370; 0.01279
 775.67;10736.017;  228.588;11074.818; 0.01378
 776.24;10546.465;  222.482;10902.265; 0.01472
 776.81;10447.580;  220.377;10665.712; 0.00917
 777.38;10368.028;  208.272;10484.160; 0.00494
 777.94;10280.143;  214.166;10350.941; 0.00304
 778.51;10142.924;  199.728;10214.721; 0.00312
 779.08;10002.373;  210.622;10137.835; 0.00597
 779.64; 9913.154;  201.517;10058.283; 0.00644
 780.21; 9841.269;  202.745; 9970.064; 0.00576
 780.78; 9736.050;  211.639; 9870.178; 0.00607
 781.34; 9577.498;  212.534; 9787.625; 0.00964
 781.91; 9545.280;  225.762; 9703.406; 0.00731
 782.47; 9504.061;  227.990; 9633.520; 0.00602
 783.04; 9504.843;  238.551; 9482.634;-0.00104
 783.61; 9380.291;  245.779; 9385.415; 0.00024
 784.17; 9304.406;  246.674; 9320.196; 0.00076
 784.74; 9216.854;  236.569; 9240.310; 0.00113
 785.31; 9164.969;  244.797; 9256.090; 0.00441
 785.87; 9124.084;  248.691; 9137.538; 0.00066
 786.44; 9098.532;  252.252; 9126.319; 0.00136
 787.00; 9010.646;  239.480; 9065.766; 0.00272
 787.57; 8923.428;  222.375; 9005.880; 0.00410
 788.14; 8872.209;  242.936; 8941.661; 0.00348
 788.70; 8908.658;  252.831; 8828.442;-0.00404
 789.27; 8883.439;  261.392; 8880.222;-0.00016
 789.83; 8782.221;  247.620; 8836.003; 0.00273
 790.40; 8678.669;  230.182; 8838.117; 0.00812
 790.96; 8640.450;  235.076; 8799.898; 0.00816
 791.53; 8661.565;  229.304; 8766.679; 0.00538
 792.10; 8624.346;  224.866; 8777.126; 0.00783
 792.66; 8640.461;  219.094; 8720.574; 0.00411
 793.23; 8593.243;  214.988; 8733.688; 0.00722
 793.79; 8578.691;  216.216; 8675.468; 0.00500
 794.36; 8543.139;  210.777; 8660.249; 0.00606
 794.92; 8519.254;  219.339; 8606.363; 0.00453
 795.49; 8518.702;  232.233; 8532.811; 0.00074
 796.05; 8441.817;  243.461; 8505.258; 0.00335
 796.62; 8385.932;  248.023; 8527.372; 0.00748
 797.19; 8355.713;  237.917; 8507.820; 0.00806
 797.75; 8351.161;  226.145; 8453.600; 0.00544
 798.32; 8352.943;  218.373; 8393.714; 0.00217
 798.88; 8331.724;  222.601; 8383.829; 0.00278
 799.45; 8322.506;  224.829; 8436.276; 0.00606
 800.01; 8426.954;  220.391; 8517.723; 0.00478
 800.58; 8722.735;  215.952; 8677.504;-0.00232
 801.14; 9027.183;  222.513; 8916.952;-0.00547
 801.71; 9278.631;  218.074; 9117.399;-0.00780
 802.27; 9439.413;  206.969; 9310.180;-0.00612
 802.84; 9606.861;  188.864; 9480.294;-0.00588
 803.40; 9817.309;  179.758; 9723.075;-0.00427
 803.96;10053.757;  198.986;10006.189;-0.00210
 804.53;10388.872;  210.548;10273.303;-0.00496
 805.09;10643.987;  208.442;10576.417;-0.00282
 805.66;10968.435;  200.670;10926.198;-0.00171
 806.22;11259.217;  172.898;11264.978; 0.00023
 806.79;11699.665;  185.793;11622.426;-0.00292
 807.35;12092.446;  182.354;11886.873;-0.00756
 807.92;12501.228;  214.582;12161.654;-0.01217
 808.48;12839.343;  221.810;12436.768;-0.01408
 809.05;13100.791;  217.705;12708.882;-0.01342
 809.61;13312.572;  213.933;13054.330;-0.00865
 810.17;13576.354;  218.827;13355.110;-0.00725
 810.74;13962.135;  231.055;13671.891;-0.00928
 811.30;14280.583;  226.617;13899.672;-0.01193
 811.87;14580.031;  214.511;14212.453;-0.01126
 812.43;14811.479;  214.406;14571.233;-0.00721
 812.99;15074.594;  216.967;14881.014;-0.00570
 813.56;15440.376;  221.862;15191.462;-0.00716
 814.12;15870.824;  221.090;15523.909;-0.00974
 814.69;16308.605;  216.318;15866.356;-0.01210
 815.25;16574.387;  210.213;16143.804;-0.01158
 815.81;16740.168;  200.774;16302.251;-0.01165
 816.38;17073.283;  196.335;16642.699;-0.01122
 816.94;17324.398;  193.897;16882.479;-0.01135
 817.51;17607.179;  192.791;17283.594;-0.00815
 818.07;17806.628;  201.019;17504.374;-0.00752
 818.63;18061.742;  202.247;17804.155;-0.00631
 819.20;18337.191;  201.808;18033.936;-0.00732
 819.76;18616.972;  209.370;18216.050;-0.00956
 820.32;18877.753;  216.598;18394.831;-0.01139
 820.89;19008.868;  218.159;18583.278;-0.00995
 821.45;19092.316;  193.387;18775.726;-0.00734
 822.01;19204.765;  176.615;18965.173;-0.00550
 822.58;19355.213;  180.843;19065.620;-0.00661
 823.14;19464.994;  194.404;19233.068;-0.00526
 823.70;19553.776;  202.299;19352.182;-0.00455
 824.27;19587.557;  193.194;19462.963;-0.00280
 824.83;19590.672;  215.421;19467.743;-0.00276
 825.39;19564.120;  215.649;19374.524;-0.00428
 825.95;19478.568;  221.211;19316.972;-0.00366
 826.52;19401.016;  191.105;19274.752;-0.00286
 827.08;19275.131;  189.000;19152.200;-0.00281
 827.64;19135.913;  175.895;18949.314;-0.00430
 828.21;18826.694;  175.123;18660.095;-0.00390
 828.77;18458.809;  181.351;18397.542;-0.00146
 829.33;18026.257;  183.579;18029.323; 0.00007
 829.89;17726.039;  181.807;17638.104;-0.00218
 830.46;17421.820;  185.701;17297.218;-0.00315
 831.02;17159.935;  190.596;16895.332;-0.00683
 831.58;16758.050;  201.157;16540.779;-0.00574
 832.15;16301.831;  185.052;16128.893;-0.00469
 832.71;15778.946;  188.280;15811.341; 0.00090
 833.27;15211.394;  178.841;15353.455; 0.00408
 833.83;14747.842;  169.736;14940.569; 0.00570
 834.39;14368.957;  164.297;14394.016; 0.00077
 834.96;14093.072;  162.192;13925.464;-0.00526
 835.52;13688.853;  187.086;13474.578;-0.00695
 836.08;13251.968;  188.981;13047.025;-0.00687
 836.64;12773.416;  194.876;12619.473;-0.00535
 837.21;12344.864;  198.770;12148.920;-0.00706
 837.77;11873.646;  198.332;11759.367;-0.00427
 838.33;11419.094;  206.893;11447.148; 0.00109
 838.89;10991.209;  203.121;11001.596; 0.00042
 839.45;10613.324;  205.349;10589.710;-0.00099
 840.02;10306.438;  209.910;10134.490;-0.00746
 840.58; 9938.887;  201.805; 9836.938;-0.00457
 841.14; 9495.668;  224.699; 9457.052;-0.00181
 841.70; 9026.449;  220.594; 9049.833; 0.00115
 842.26; 8593.564;  218.155; 8613.280; 0.00102
 842.82; 8239.346;  209.050; 8233.061;-0.00034
 843.39; 7795.461;  200.278; 7802.175; 0.00038
 843.95; 7433.242;  213.839; 7446.956; 0.00082
 844.51; 7094.024;  213.734; 7076.737;-0.00109
 845.07; 6888.472;  223.295; 6751.184;-0.00904
 845.63; 6620.253;  228.523; 6447.965;-0.01187
 846.19; 6380.368;  213.418; 6205.745;-0.01247
 846.75; 6098.483;  212.646; 6042.860;-0.00412
 847.32; 5854.264;  191.874; 5828.307;-0.00200
 847.88; 5673.046;  198.435; 5647.088;-0.00206
 848.44; 5481.161;  182.996; 5418.202;-0.00519
 849.00; 5334.609;  188.224; 5206.649;-0.01093
 849.56; 5158.390;  183.119; 5035.763;-0.01084
 850.12; 5028.838;  176.680; 4913.211;-0.01047
 850.68; 4938.286;  181.908; 4877.325;-0.00560
 851.24; 4899.068;  184.136; 4806.439;-0.00862
 851.80; 4844.516;  199.364; 4790.220;-0.00511
 852.37; 4814.298;  196.592; 4731.334;-0.00787
 852.93; 4760.746;  204.820; 4729.448;-0.00299
 853.49; 4719.527;  212.715; 4650.895;-0.00666
 854.05; 4659.309;  223.943; 4597.676;-0.00608
 854.61; 4608.090;  224.171; 4520.790;-0.00874
 855.17; 4611.872;  234.066; 4501.904;-0.01105
 855.73; 4633.320;  222.627; 4484.352;-0.01492
 856.29; 4626.101;  213.855; 4475.132;-0.01512
 856.85; 4617.216;  192.749; 4517.913;-0.00986
 857.41; 4664.997;  203.644; 4600.027;-0.00637
 857.97; 4782.446;  205.205; 4760.141;-0.00212
 858.53; 4936.560;  207.433; 4902.255;-0.00316
 859.09; 5145.675;  192.328; 5028.370;-0.01041
 859.65; 5365.123;  184.889; 5166.484;-0.01698
 860.21; 5657.238;  182.451; 5403.598;-0.02060
 860.77; 5963.353;  179.679; 5685.045;-0.02142
 861.33; 6303.134;  189.573; 6014.826;-0.02098
 861.89; 6614.249;  205.135; 6331.273;-0.01961
 862.45; 6930.697;  215.363; 6656.387;-0.01811
 863.01; 7276.146;  205.924; 6960.168;-0.01986
 863.57; 7611.260;  191.152; 7240.949;-0.02223
 864.13; 7909.708;  180.713; 7598.730;-0.01784
 864.69; 8244.823;  188.608; 7928.510;-0.01740
 865.25; 8614.605;  208.502; 8274.958;-0.01791
 865.81; 9010.720;  215.730; 8598.739;-0.02084
 866.37; 9346.834;  213.625; 8883.853;-0.02259
 866.93; 9678.616;  200.853; 9198.967;-0.02255
 867.49; 9913.064;  216.081; 9536.081;-0.01722
 868.05;10188.845;  210.642; 9849.195;-0.01504
 868.61;10472.960;  206.870;10116.309;-0.01536
 869.17;10861.075;  185.765;10306.090;-0.02319
 869.73;11188.857;  202.660;10652.537;-0.02174
 870.29;11530.971;  209.554;10985.985;-0.02143
 870.85;11841.419;  212.115;11316.099;-0.02007
 871.41;12178.201;  192.010;11700.213;-0.01767
 871.97;12538.982;  179.571;12032.994;-0.01815
 872.53;12861.097;  184.799;12414.108;-0.01559
 873.09;13278.879;  192.361;12748.222;-0.01798
 873.65;13605.327;  202.922;13125.336;-0.01584
 874.20;14136.442;  204.150;13530.783;-0.01930
 874.76;14506.775;  206.483;13844.450;-0.02060
 875.32;14946.442;  199.150;14344.450;-0.01810
 875.88;15231.108;  204.817;14722.117;-0.01497
 876.44;15567.108;  218.150;15059.450;-0.01461
 877.00;15872.775;  218.150;15358.117;-0.01452
 877.56;16176.108;  215.483;15696.450;-0.01325
 878.12;16510.442;  204.483;16104.450;-0.01095
 878.68;16852.775;  211.817;16344.450;-0.01347
 879.23;17096.775;  207.150;16637.783;-0.01197
 879.79;17393.775;  220.483;16875.783;-0.01330
 880.35;17659.442;  205.150;17127.117;-0.01345
 880.91;17917.775;  192.150;17367.783;-0.01369
 881.47;18207.442;  175.817;17611.783;-0.01459
 882.03;18470.775;  191.483;17929.783;-0.01305
 882.59;18794.108;  204.150;18199.450;-0.01412
 883.14;18998.442;  217.150;18423.117;-0.01351
 883.70;19095.442;  220.150;18492.117;-0.01411
 884.26;19154.108;  217.483;18606.117;-0.01275
 884.82;19199.775;  200.150;18627.783;-0.01328
 885.38;19210.775;  184.483;18693.783;-0.01196
 885.94;19223.108;  186.817;18692.783;-0.01227
 886.49;19180.108;  200.150;18759.783;-0.00973
 887.05;19208.108;  192.817;18819.450;-0.00897
 887.61;19096.775;  182.817;18766.450;-0.00765
 888.17;19018.442;  175.817;18655.450;-0.00845
 888.73;18870.775;  189.483;18492.450;-0.00889
 889.28;18730.775;  190.150;18251.117;-0.01138
 889.84;18558.775;  191.817;18020.450;-0.01292
 890.40;18412.442;  194.817;17792.450;-0.01504
 890.96;18244.442;  199.483;17628.450;-0.01508
 891.51;18057.108;  189.483;17470.117;-0.01451
 892.07;17825.775;  183.817;17244.117;-0.01456
 892.63;17704.442;  190.483;17036.783;-0.01688
 893.19;17434.108;  200.817;16880.117;-0.01419
 893.74;17175.442;  215.150;16772.783;-0.01044
 894.30;16953.108;  206.150;16671.450;-0.00737
 894.86;16913.442;  185.150;16510.450;-0.01059
 895.42;16847.442;  176.483;16397.450;-0.01188
 895.97;16817.775;  175.150;16362.450;-0.01205
 896.53;16703.775;  203.817;16299.450;-0.01077
 897.09;16757.775;  212.817;16258.117;-0.01332
 897.65;16724.442;  225.483;16079.783;-0.01731
 898.20;16687.442;  228.483;15994.117;-0.01869
 898.76;16595.442;  215.150;15888.117;-0.01917
 899.32;16511.108;  215.483;15824.450;-0.01870
 899.87;16367.442;  206.483;15765.117;-0.01650
 900.43;16223.442;  206.150;15631.783;-0.01635
 900.99;16021.775;  194.483;15508.450;-0.01432
 901.54;15854.442;  181.150;15319.450;-0.01508
 902.10;15586.775;  193.150;15133.117;-0.01299
 902.66;15391.442;  208.483;14918.117;-0.01375
 903.21;15183.442;  221.817;14754.117;-0.01264
 903.77;15124.108;  229.483;14588.450;-0.01591
 904.33;14951.108;  209.483;14443.783;-0.01521
 904.88;14932.442;  198.150;14329.783;-0.01814
 905.44;14774.775;  177.150;14293.450;-0.01456
 906.00;14788.775;  191.150;14324.117;-0.01405
 906.55;14595.108;  207.483;14294.117;-0.00918
 907.11;14533.108;  214.150;14239.117;-0.00901
 907.67;14335.108;  205.817;14016.117;-0.00992
 908.22;14221.775;  196.150;13855.783;-0.01148
 908.78;14109.442;  187.817;13715.783;-0.01246
 909.33;14044.108;  195.483;13616.783;-0.01361
 909.89;14023.108;  192.150;13488.783;-0.01711
 910.45;13950.775;  201.150;13406.783;-0.01753
 911.00;13839.442;  191.483;13362.117;-0.01546
 911.56;13747.775;  203.817;13272.117;-0.01553
 912.12;13569.775;  208.483;13101.117;-0.01551
 912.67;13395.108;  221.483;12951.117;-0.01489
 913.23;13203.775;  194.150;12807.450;-0.01344
 913.78;13087.442;  178.483;12651.783;-0.01491
 914.34;13072.442;  201.483;12642.117;-0.01477
 914.89;12978.775;  216.483;12543.117;-0.01508
 915.45;12842.108;  227.150;12558.117;-0.00989
 916.01;12673.775;  195.483;12386.117;-0.01013
 916.56;12608.775;  201.483;12282.450;-0.01158
 917.12;12532.775;  196.817;12063.117;-0.01686
 917.67;12473.108;  195.483;11981.117;-0.01776
 918.23;12351.442;  182.817;11944.450;-0.01477
 918.78;12227.108;  186.483;11927.117;-0.01096
 919.34;12120.108;  188.817;11843.783;-0.01018
 919.89;12000.108;  199.150;11694.117;-0.01141
 920.45;11921.775;  185.817;11531.783;-0.01468
 921.00;11742.775;  168.817;11330.783;-0.01574
 921.56;11652.775;  176.150;11296.783;-0.01368
 922.11;11545.775;  175.150;11154.450;-0.01521
 922.67;11425.108;  202.483;11048.450;-0.01483
 923.22;11265.775;  191.150;10815.450;-0.01803
 923.78;11034.442;  202.817;10632.117;-0.01644
 924.33;10848.775;  195.817;10497.117;-0.01458
 924.89;10589.442;  196.483;10361.117;-0.00965
 925.44;10424.442;  204.817;10248.117;-0.00756
 926.00;10252.108;  201.150;10018.783;-0.01020
 926.55;10174.442;  205.150; 9867.117;-0.01360
 927.11;10095.442;  188.150; 9720.450;-0.01676
 927.66;10054.442;  177.817; 9717.117;-0.01509
 928.22; 9936.442;  174.483; 9670.783;-0.01198
 928.77; 9907.108;  190.150; 9636.117;-0.01228
 929.33; 9898.442;  204.150; 9587.783;-0.01415
 929.88; 9901.108;  205.150; 9516.450;-0.01758
 930.43; 9901.108;  182.483; 9493.450;-0.01861
 930.99; 9767.442;  174.817; 9470.117;-0.01367
 931.54; 9732.775;  167.150; 9456.783;-0.01271
 932.10; 9763.108;  190.150; 9473.117;-0.01336
 932.65; 9831.108;  197.150; 9480.117;-0.01612
 933.21; 9850.442;  198.483; 9496.450;-0.01623
 933.76; 9751.108;  187.483; 9472.117;-0.01286
 934.31; 9796.442;  183.150; 9454.117;-0.01575
 934.87; 9816.108;  190.150; 9433.783;-0.01760
 935.42; 9772.108;  199.483; 9431.450;-0.01574
 935.98; 9707.775;  195.483; 9388.450;-0.01483
 936.53; 9712.775;  193.817; 9335.450;-0.01757
 937.08; 9715.442;  191.150; 9347.783;-0.01710
 937.64; 9618.442;  197.817; 9356.783;-0.01223
 938.19; 9572.442;  196.483; 9425.117;-0.00688
 938.74; 9618.108;  199.817; 9340.117;-0.01301
 939.30; 9690.108;  187.150; 9339.783;-0.01631
 939.85; 9648.775;  186.483; 9209.783;-0.02063
 940.40; 9609.775;  173.817; 9251.783;-0.01680
 940.96; 9559.442;  187.150; 9238.450;-0.01513
 941.51; 9548.442;  189.483; 9244.783;-0.01432
 942.06; 9462.442;  197.150; 9160.450;-0.01439
 942.62; 9459.775;  184.817; 9036.783;-0.02027
 943.17; 9357.442;  195.150; 8966.450;-0.01894
 943.72; 9265.442;  180.483; 8903.117;-0.01768
 944.28; 9173.775;  199.483; 8795.117;-0.01872
 944.83; 9154.108;  184.150; 8766.783;-0.01917
 945.38; 9134.775;  194.483; 8735.117;-0.01986
 945.94; 9053.775;  186.483; 8804.450;-0.01239
 946.49; 8952.442;  205.150; 8772.783;-0.00901
 947.04; 8936.108;  208.817; 8738.117;-0.00997
 947.60; 8854.108;  215.150; 8638.117;-0.01100
 948.15; 8770.442;  203.483; 8519.117;-0.01293
 948.70; 8596.442;  212.817; 8413.783;-0.00957
 949.25; 8533.775;  206.150; 8325.117;-0.01102
 949.81; 8465.775;  208.817; 8271.117;-0.01036
 950.36; 8396.108;  198.483; 8157.117;-0.01285
 950.91; 8268.442;  207.150; 8037.783;-0.01261
 951.46; 8097.442;  203.817; 7873.117;-0.01252
 952.02; 7970.108;  207.150; 7734.117;-0.01341
 952.57; 7814.108;  207.150; 7606.450;-0.01202
 953.12; 7735.108;  218.483; 7526.117;-0.01225
 953.67; 7620.775;  218.150; 7443.783;-0.01051
 954.23; 7545.108;  215.817; 7359.450;-0.01114
 954.78; 7404.108;  208.150; 7234.450;-0.01036
 955.33; 7273.442;  218.150; 7119.783;-0.00956
 955.88; 7127.442;  217.150; 6980.117;-0.00936
 956.44; 7065.108;  230.483; 6838.450;-0.01465
 956.99; 6988.442;  228.817; 6737.117;-0.01646
 957.54; 6945.108;  223.817; 6672.783;-0.01796
 958.09; 6896.442;  222.150; 6636.783;-0.01723
 958.64; 6862.108;  206.817; 6607.450;-0.01694
 959.20; 6795.775;  203.483; 6532.450;-0.01770
 959.75; 6730.108;  199.817; 6496.450;-0.01582
 960.30; 6655.775;  218.150; 6441.783;-0.01468
 960.85; 6675.442;  225.150; 6424.450;-0.01724
 961.40; 6658.775;  228.817; 6381.117;-0.01917
 961.95; 6682.442;  231.817; 6360.783;-0.02221
 962.51; 6680.775;  239.483; 6360.117;-0.02218
 963.06; 6679.775;  242.817; 6380.117;-0.02070
 963.61; 6701.442;  234.150; 6314.783;-0.02677
 964.16; 6689.775;  235.150; 6258.450;-0.03004
 964.71; 6641.442;  222.483; 6212.117;-0.03006
 965.26; 6574.108;  213.150; 6253.117;-0.02249
 965.81; 6555.108;  210.817; 6289.117;-0.01860
 966.36; 6594.775;  208.483; 6323.783;-0.01883
 966.92; 6601.442;  216.150; 6305.117;-0.02064
 967.47; 6597.108;  218.483; 6338.117;-0.01800
 968.02; 6630.108;  232.483; 6354.117;-0.01915
 968.57; 6697.442;  234.817; 6375.450;-0.02220
 969.12; 6788.775;  219.817; 6368.783;-0.02869
 969.67; 6787.442;  204.483; 6420.783;-0.02489
 970.22; 6826.442;  194.150; 6469.783;-0.02401
 970.77; 6841.442;  199.817; 6539.117;-0.02023
 971.32; 6950.442;  197.483; 6593.117;-0.02361
 971.87; 7011.442;  198.817; 6693.117;-0.02078
 972.42; 7066.775;  215.150; 6793.117;-0.01770
 972.98; 7149.442;  220.817; 6908.783;-0.01535
 973.53; 7277.775;  231.483; 6996.117;-0.01772
 974.08; 7367.108;  215.483; 7040.450;-0.02030
 974.63; 7447.775;  223.483; 7078.450;-0.02279
 975.18; 7479.442;  218.483; 7103.117;-0.02311
 975.73; 7579.442;  224.817; 7157.450;-0.02566
 976.28; 7642.108;  221.483; 7219.117;-0.02549
 976.83; 7659.442;  221.483; 7315.450;-0.02056
 977.38; 7634.442;  219.483; 7373.783;-0.01554
 977.93; 7606.442;  222.150; 7387.450;-0.01307
 978.48; 7661.775;  228.483; 7365.783;-0.01765
 979.03; 7715.775;  234.817; 7358.117;-0.02128
 979.58; 7712.442;  221.483; 7329.117;-0.02281
 980.13; 7679.775;  207.150; 7367.783;-0.01852
 980.68; 7616.442;  186.483; 7310.450;-0.01826
 981.23; 7546.108;  185.817; 7278.117;-0.01611
 981.78; 7503.108;  207.150; 7207.450;-0.01797
 982.33; 7479.442;  219.150; 7257.117;-0.01351
 982.88; 7533.775;  232.483; 7211.783;-0.01959
 983.43; 7452.108;  218.150; 7145.783;-0.01879
 983.98; 7366.775;  215.150; 6984.117;-0.02388
 984.53; 7211.108;  203.817; 6873.450;-0.02145
 985.08; 7191.442;  209.817; 6835.783;-0.02271
 985.63; 7122.108;  211.150; 6787.117;-0.02158
 986.18; 7064.108;  218.817; 6756.783;-0.01995
 986.73; 6960.775;  218.483; 6610.450;-0.02317
 987.27; 6902.108;  227.483; 6521.117;-0.02553
 987.82; 6864.775;  238.483; 6431.783;-0.02935
 988.37; 6780.108;  243.150; 6400.783;-0.02596
 988.92; 6632.442;  234.150; 6351.117;-0.01953
 989.47; 6482.775;  214.483; 6285.117;-0.01392
 990.02; 6396.108;  208.483; 6199.117;-0.01405
 990.57; 6382.108;  208.150; 6083.117;-0.02156
 991.12; 6317.775;  215.150; 6044.450;-0.01990
 991.67; 6275.775;  213.817; 5969.117;-0.02254
 992.22; 6179.775;  200.483; 5915.450;-0.01964
 992.77; 6097.108;  200.150; 5802.450;-0.02226
 993.31; 5960.108;  204.817; 5735.783;-0.01727
 993.86; 5878.442;  230.483; 5683.783;-0.01523
 994.41; 5822.108;  235.150; 5580.117;-0.01923
 994.96; 5751.442;  226.483; 5473.117;-0.02245
 995.51; 5614.775;  218.817; 5377.783;-0.01951
 996.06; 5473.108;  208.483; 5293.783;-0.01505
 996.61; 5341.108;  222.483; 5201.783;-0.01199
 997.15; 5258.442;  236.150; 5083.450;-0.01540
 997.70; 5138.442;  241.150; 4965.117;-0.01565
 998.25; 5059.442;  247.483; 4873.450;-0.01712
 998.80; 4908.442;  248.483; 4740.117;-0.01598
 999.35; 4765.775;  249.483; 4623.450;-0.01391
 999.90; 4587.775;  236.150; 4455.117;-0.01345
1000.44; 4449.108;  224.483; 4340.450;-0.01132
1000.99; 4342.108;  232.483; 4190.783;-0.01629
1001.54; 4209.775;  237.150; 4067.450;-0.01584
1002.09; 4086.442;  231.817; 3939.117;-0.01692
1002.64; 3966.108;  238.483; 3855.450;-0.01309
1003.18; 3882.775;  240.483; 3766.783;-0.01406
1003.73; 3792.775;  238.483; 3661.450;-0.01635
1004.28; 3705.442;  226.817; 3584.450;-0.01537
1004.83; 3617.108;  209.483; 3488.117;-0.01676
1005.38; 3567.442;  210.150; 3420.783;-0.01940
1005.92; 3512.442;  219.150; 3321.783;-0.02590
1006.47; 3438.775;  236.817; 3231.783;-0.02902
1007.02; 3350.442;  235.483; 3140.117;-0.03036
1007.57; 3255.442;  222.817; 3087.450;-0.02475
1008.11; 3174.775;  211.817; 3028.450;-0.02200
1008.66; 3105.442;  205.150; 2973.450;-0.02023
1009.21; 3034.108;  192.483; 2907.783;-0.01975
1009.75; 2972.442;  177.817; 2862.117;-0.01749
1010.30; 2883.442;  170.150; 2793.117;-0.01470
1010.85; 2818.442;  176.817; 2712.783;-0.01773
1011.40; 2754.442;  204.150; 2628.450;-0.02200
1011.94; 2704.108;  221.817; 2545.783;-0.02862
1012.49; 2614.442;  216.483; 2464.450;-0.02805
1013.04; 2516.775;  194.150; 2362.117;-0.02993
1013.58; 2409.108;  184.150; 2325.117;-0.01671
1014.13; 2321.775;  188.483; 2268.117;-0.01106
1014.68; 2255.775;  196.483; 2233.450;-0.00473
1015.23; 2208.775;  203.150; 2181.450;-0.00596
1015.77; 2175.442;  199.817; 2113.117;-0.01392
1016.32; 2170.442;  204.817; 2072.450;-0.02221
1016.87; 2143.442;  209.483; 2012.783;-0.03038
1017.41; 2101.108;  206.817; 1977.450;-0.02932
1017.96; 2026.775;  194.817; 1953.450;-0.01774
1018.50; 1982.108;  186.483; 1926.450;-0.01367
1019.05; 1924.108;  188.483; 1903.450;-0.00520
1019.60; 1864.775;  182.817; 1815.783;-0.01284
1020.14; 1816.442;  196.150; 1752.783;-0.01741
1020.69; 1770.775;  196.150; 1698.117;-0.02052
1021.24; 1723.108;  209.483; 1650.450;-0.02136
1021.78; 1668.108;  188.483; 1620.450;-0.01422
1022.33; 1635.108;  190.150; 1592.450;-0.01301
1022.87; 1605.442;  182.817; 1587.783;-0.00542
1023.42; 1578.442;  198.150; 1567.117;-0.00358
1023.97; 1512.442;  200.150; 1516.117; 0.00121
1024.51; 1469.775;  212.150; 1465.117;-0.00161
1025.06; 1426.775;  200.483; 1401.117;-0.00918
1025.60; 1427.442;  198.817; 1340.783;-0.03177
1026.15; 1403.775;  181.150; 1307.783;-0.03551
1026.70; 1356.775;  185.483; 1284.783;-0.02755
1027.24; 1330.108;  195.483; 1279.783;-0.01970
1027.79; 1298.775;  200.483; 1270.450;-0.01135
1028.33; 1263.108;  197.483; 1252.450;-0.00437
1028.88; 1233.108;  188.817; 1215.450;-0.00741
1029.42; 1204.108;  208.150; 1198.450;-0.00247
1029.97; 1215.442;  197.817; 1156.450;-0.02594
1030.51; 1193.775;  190.150; 1127.117;-0.02985
1031.06; 1184.775;  182.817; 1088.783;-0.04374
1031.61; 1142.442;  192.483; 1063.117;-0.03787
1032.15; 1118.108;  210.150; 1050.450;-0.03363
1032.70; 1065.775;  202.817; 1024.117;-0.02149
1033.24; 1039.442;  206.483; 1018.117;-0.01126
1033.79; 1020.108;  200.817; 1020.450; 0.00018
1034.33; 1028.108;  199.817; 1016.450;-0.00616
1034.88; 1024.108;  201.817; 1008.783;-0.00817
1035.42; 1014.108;  202.817;  979.450;-0.01896
1035.97;  993.108;  204.483;  950.450;-0.02415
1036.51;  969.442;  206.483;  931.450;-0.02218
1037.06;  954.108;  200.817;  944.117;-0.00580
1037.60;  956.775;  207.150;  948.783;-0.00465
1038.14;  963.108;  204.150;  928.783;-0.02010
1038.69;  978.442;  222.150;  927.783;-0.03011
1039.23;  959.108;  234.483;  935.783;-0.01421
1039.78;  954.775;  235.150;  948.783;-0.00363
1040.32;  929.442;  224.483;  915.783;-0.00850
1040.87;  927.442;  208.483;  887.117;-0.02507
1041.41;  903.108;  198.150;  864.117;-0.02471
1041.96;  906.108;  200.817;  882.783;-0.01461
1042.50;  901.775;  197.817;  893.117;-0.00537
1043.04;  909.108;  213.817;  899.117;-0.00629
1043.59;  892.108;  217.150;  867.450;-0.01616
1044.13;  882.108;  212.483;  869.450;-0.00829
1044.68;  870.108;  205.817;  862.117;-0.00526
1045.22;  853.442;  199.150;  873.783; 0.01330
1045.76;  851.775;  201.817;  869.450; 0.01165
1046.31;  825.442;  193.483;  861.783; 0.02428
1046.85;  818.442;  200.483;  842.117; 0.01633
1047.40;  807.775;  202.483;  813.783; 0.00429
1047.94;  818.108;  215.150;  808.783;-0.00677
1048.48;  833.775;  211.150;  810.117;-0.01682
1049.03;  819.108;  214.483;  793.450;-0.01883
1049.57;  828.775;  229.150;  787.117;-0.03127
1050.11;  815.442;  222.817;  774.117;-0.03139
1050.66;  808.775;  218.483;  779.117;-0.02239
1051.20;  792.108;  206.483;  794.450; 0.00173
1051.74;  774.108;  200.817;  788.117; 0.01048
1052.29;  774.775;  200.150;  780.783; 0.00452
1052.83;  756.108;  199.150;  748.117;-0.00628
1053.37;  752.775;  224.817;  744.783;-0.00662
1053.92;  735.108;  234.150;  739.783; 0.00403
1054.46;  744.775;  236.483;  734.117;-0.00920
1055.00;  759.108;  231.483;  739.117;-0.01678
1055.55;  786.442;  230.817;  738.117;-0.03952
1056.09;  766.108;  223.817;  747.783;-0.01493
1056.63;  741.442;  215.817;  711.783;-0.02522
1057.17;  711.108;  216.483;  709.117;-0.00175
1057.72;  709.442;  225.150;  697.450;-0.01089
1058.26;  715.775;  223.483;  705.783;-0.00891
1058.80;  720.775;  229.817;  700.450;-0.01836
1059.35;  716.442;  230.483;  686.450;-0.02767
1059.89;  692.442;  230.150;  672.450;-0.01920
1060.43;  674.442;  227.817;  654.783;-0.01955
1060.97;  662.442;  223.817;  667.117; 0.00460
1061.52;  666.442;  231.150;  682.450; 0.01568
1062.06;  672.108;  231.483;  671.450;-0.00065
1062.60;  676.108;  236.483;  658.450;-0.01780
1063.14;  665.108;  232.483;  640.783;-0.02513
1063.69;  655.108;  216.483;  640.117;-0.01510
1064.23;  637.108;  208.817;  619.783;-0.01793
1064.77;  619.108;  200.483;  598.450;-0.02198
1065.31;  613.775;  201.817;  577.450;-0.04009
1065.85;  604.775;  206.483;  567.117;-0.04314
1066.40;  618.442;  205.150;  579.450;-0.04304
1066.94;  622.108;  217.817;  579.117;-0.04883
1067.48;  619.108;  209.150;  587.783;-0.03452
1068.02;  597.775;  233.817;  562.450;-0.04434
1068.56;  572.775;  216.817;  564.783;-0.00986
1069.10;  569.108;  212.817;  549.783;-0.02422
1069.65;  572.442;  195.817;  566.450;-0.00696
1070.19;  578.108;  208.817;  566.783;-0.01353
1070.73;  575.442;  223.817;  582.783; 0.00897
1071.27;  570.775;  215.817;  567.117;-0.00450
1071.81;  561.775;  207.150;  562.117; 0.00042
1072.35;  576.108;  201.817;  549.117;-0.03251
1072.90;  562.442;  197.150;  546.783;-0.01903
1073.44;  547.775;  202.817;  540.117;-0.00975
1073.98;  537.442;  206.150;  531.450;-0.00793
1074.52;  550.775;  224.483;  538.783;-0.01626
1075.06;  557.775;  218.483;  542.450;-0.02007
1075.60;  541.442;  207.483;  531.450;-0.01319
1076.14;  520.775;  204.817;  514.117;-0.00925
1076.68;  514.442;  207.150;  504.450;-0.01436
1077.22;  525.775;  225.817;  504.783;-0.03151
1077.76;  521.442;  214.817;  498.117;-0.03436
1078.31;  519.775;  229.817;  499.783;-0.03103
1078.85;  512.775;  226.483;  517.117; 0.00654
1079.39;  512.775;  243.817;  525.450; 0.02000
1079.93;  511.108;  237.817;  507.783;-0.00532
1080.47;  497.775;  227.483;  476.450;-0.03569
1081.01;  504.442;  216.150;  474.783;-0.04715
1081.55;  502.442;  208.483;  488.783;-0.02066
1082.09;  513.775;  205.817;  488.783;-0.03676
1082.63;  509.442;  210.150;  496.450;-0.01927
1083.17;  508.108;  221.150;  500.783;-0.01123
1083.71;  508.775;  228.817;  501.450;-0.01151
1084.25;  483.775;  224.483;  471.117;-0.02174
1084.79;  470.108;  214.483;  446.450;-0.04218
1085.33;  453.108;  202.817;  450.783;-0.00405
1085.87;  473.108;  199.483;  468.450;-0.00746
1086.41;  484.775;  214.483;  471.450;-0.02196
1086.95;  486.442;  222.150;  467.117;-0.03298
1087.49;  479.775;  225.817;  454.783;-0.04499
1088.03;  461.775;  216.817;  454.117;-0.01379
1088.57;  455.775;  219.817;  450.783;-0.00929
1089.11;  466.775;  222.150;  448.117;-0.03446
1089.65;  483.108;  233.150;  458.783;-0.04446
1090.19;  499.108;  238.483;  468.117;-0.05498
1090.73;  490.108;  240.483;  471.783;-0.03311
1091.27;  485.108;  238.817;  466.117;-0.03485
1091.81;  471.108;  238.483;  458.117;-0.02496
1092.35;  468.775;  247.483;  461.450;-0.01462
1092.89;  466.108;  232.150;  457.450;-0.01638
1093.43;  466.442;  223.817;  445.783;-0.03865
1093.97;  448.442;  210.150;  441.117;-0.01356
1094.51;  442.108;  208.483;  440.450;-0.00309
1095.04;  433.442;  218.483;  442.783; 0.01847
1095.58;  454.775;  238.817;  436.783;-0.03778
1096.12;  460.108;  242.817;  428.783;-0.06761
1096.66;  449.108;  239.817;  430.450;-0.04055
1097.20;  438.775;  235.817;  449.450; 0.02226
1097.74;  430.442;  246.817;  456.783; 0.05822
1098.28;  424.442;  235.817;  457.117; 0.06938
1098.82;  438.442;  230.483;  453.117; 0.02961
1099.36;  438.442;  228.150;  446.450; 0.01623
1099.89;  456.108;  230.150;  447.450;-0.01697

