
Integration time [ms]:   0.300
Averaging Nr. [scans]: 1
Smoothing Nr. [pixels]: 1
Data measured with spectrometer [name]: 1906252U1
Wave   ;Sample   ;Dark     ;Reference;Absorbance
[nm]   ;[counts] ;[counts] ;[counts] ;[A.U]

 161.30;  298.458;  271.207;  271.637; 0.00000
 161.90;  268.481;  265.524;  261.712; 0.00000
 162.51;  261.850;  259.038;  260.433;-0.30460
 163.11;  251.929;  265.693;  251.834; 0.00000
 163.71;  271.226;  276.696;  266.803; 0.00000
 164.31;  274.896;  294.270;  273.488; 0.00000
 164.91;  286.494;  288.393;  287.410; 0.00000
 165.52;  286.362;  277.299;  279.261;-0.66460
 166.12;  278.178;  271.979;  273.718;-0.55216
 166.72;  288.887;  272.971;  259.755; 0.00000
 167.32;  286.833;  271.656;  271.040; 0.00000
 167.93;  288.994;  261.266;  267.518;-0.64691
 168.53;  274.431;  254.112;  260.296;-0.51667
 169.13;  280.719;  264.427;  257.261; 0.00000
 169.73;  291.144;  271.677;  266.351; 0.00000
 170.33;  315.588;  291.614;  320.561; 0.08185
 170.94;  331.249;  317.756;  347.746; 0.34685
 171.54;  338.952;  335.278;  387.239; 1.15054
 172.14;  348.907;  338.926;  375.538; 0.56444
 172.74;  351.231;  324.358;  373.181; 0.25930
 173.34;  350.944;  319.589;  355.569; 0.05976
 173.95;  340.636;  309.596;  343.923; 0.04371
 174.55;  336.607;  318.289;  355.228; 0.30459
 175.15;  355.867;  320.689;  367.155; 0.12087
 175.75;  355.917;  322.370;  380.195; 0.23646
 176.35;  358.736;  332.415;  382.036; 0.27535
 176.95;  354.248;  327.740;  392.907; 0.39065
 177.56;  361.359;  327.608;  398.355; 0.32142
 178.16;  349.316;  316.738;  399.298; 0.40385
 178.76;  348.856;  316.306;  398.487; 0.40222
 179.36;  351.396;  310.874;  401.343; 0.34881
 179.96;  365.544;  304.800;  395.813; 0.17560
 180.56;  362.026;  308.938;  392.969; 0.19944
 181.17;  370.816;  318.009;  403.448; 0.20896
 181.77;  377.207;  318.897;  417.181; 0.22674
 182.37;  373.474;  306.653;  404.111; 0.16390
 182.97;  371.486;  319.309;  413.789; 0.25786
 183.57;  395.981;  323.525;  427.944; 0.15870
 184.17;  424.482;  336.736;  473.104; 0.19149
 184.78;  436.972;  316.624;  484.587; 0.14478
 185.38;  438.545;  315.012;  504.833; 0.18656
 185.98;  452.332;  315.783;  504.638; 0.14084
 186.58;  471.136;  316.598;  510.449; 0.09843
 187.18;  474.692;  313.002;  491.678; 0.04338
 187.78;  487.746;  324.256;  526.070; 0.09146
 188.38;  490.837;  331.840;  541.159; 0.11942
 188.98;  498.211;  337.804;  574.199; 0.16842
 189.59;  507.227;  332.575;  567.529; 0.12881
 190.19;  509.766;  326.870;  580.708; 0.14235
 190.79;  516.986;  326.914;  573.939; 0.11382
 191.39;  492.651;  317.159;  564.285; 0.14866
 191.99;  490.077;  322.498;  545.363; 0.12382
 192.59;  477.986;  317.307;  539.929; 0.14161
 193.19;  480.417;  313.765;  525.712; 0.10442
 193.79;  465.979;  325.164;  530.280; 0.16335
 194.39;  456.715;  328.250;  517.658; 0.16861
 195.00;  451.218;  327.216;  511.139; 0.17121
 195.60;  438.800;  305.566;  480.732; 0.11884
 196.20;  428.194;  304.088;  469.473; 0.12470
 196.80;  401.051;  305.278;  453.989; 0.19110
 197.40;  404.237;  313.686;  455.186; 0.19386
 198.00;  392.163;  320.693;  452.457; 0.26567
 198.60;  386.995;  317.270;  442.943; 0.25585
 199.20;  363.578;  312.435;  427.513; 0.35221
 199.80;  366.836;  303.957;  416.753; 0.25379
 200.40;  359.281;  299.492;  396.868; 0.21183
 201.00;  353.165;  293.841;  371.434; 0.11660
 201.60;  329.128;  292.845;  340.403; 0.11752
 202.21;  333.630;  298.995;  352.240; 0.18677
 202.81;  335.620;  303.760;  367.883; 0.30377
 203.41;  333.673;  301.801;  377.921; 0.37809
 204.01;  319.696;  296.447;  373.611; 0.52101
 204.61;  314.559;  287.965;  374.799; 0.51391
 205.21;  323.438;  280.528;  391.328; 0.41198
 205.81;  332.686;  276.000;  394.567; 0.32049
 206.41;  323.777;  281.190;  389.667; 0.40605
 207.01;  325.610;  291.585;  373.516; 0.38165
 207.61;  317.306;  290.832;  349.221; 0.34352
 208.21;  334.513;  294.007;  340.088; 0.05599
 208.81;  332.140;  285.376;  350.048; 0.14080
 209.41;  337.356;  292.971;  355.294; 0.14741
 210.01;  330.542;  286.985;  361.835; 0.23513
 210.61;  327.371;  290.534;  351.990; 0.22228
 211.21;  318.284;  293.399;  356.219; 0.40215
 211.81;  315.682;  300.157;  352.258; 0.52582
 212.41;  304.602;  301.896;  344.513; 1.19728
 213.01;  301.692;  296.332;  351.625; 1.01350
 213.61;  296.068;  285.263;  357.339; 0.82415
 214.21;  313.155;  282.939;  368.411; 0.45158
 214.81;  321.813;  278.704;  361.387; 0.28286
 215.41;  328.741;  282.466;  362.645; 0.23871
 216.01;  312.616;  278.247;  362.189; 0.38781
 216.61;  305.209;  287.920;  357.792; 0.60654
 217.21;  305.797;  290.599;  357.391; 0.64295
 217.81;  312.212;  297.221;  367.800; 0.67284
 218.41;  319.830;  301.628;  379.081; 0.62892
 219.01;  320.241;  307.801;  388.505; 0.81207
 219.61;  320.976;  301.739;  384.906; 0.63581
 220.21;  306.263;  297.568;  378.507; 0.96889
 220.81;  302.476;  283.737;  372.713; 0.67652
 221.41;  312.787;  284.091;  376.024; 0.50565
 222.01;  320.484;  280.426;  372.049; 0.35931
 222.61;  331.873;  298.953;  367.451; 0.31822
 223.21;  326.496;  301.813;  357.103; 0.35026
 223.81;  327.743;  301.952;  360.676; 0.35734
 224.41;  314.723;  281.875;  343.618; 0.27408
 225.01;  304.036;  269.317;  340.250; 0.31028
 225.61;  313.467;  274.108;  341.033; 0.23054
 226.21;  310.998;  273.112;  349.918; 0.30691
 226.81;  315.583;  286.490;  349.175; 0.33338
 227.41;  326.691;  284.059;  344.282; 0.15002
 228.01;  336.665;  302.172;  351.241; 0.15309
 228.61;  340.920;  306.727;  360.474; 0.19642
 229.21;  334.145;  303.825;  362.700; 0.28821
 229.81;  332.223;  308.998;  372.791; 0.43883
 230.41;  334.827;  299.055;  383.396; 0.37250
 231.01;  325.699;  300.808;  405.942; 0.62570
 231.61;  315.517;  287.307;  401.095; 0.60570
 232.21;  321.926;  300.328;  383.489; 0.58551
 232.81;  320.381;  296.307;  370.928; 0.49132
 233.41;  322.449;  302.578;  372.995; 0.54946
 234.00;  325.023;  298.240;  379.918; 0.48425
 234.60;  322.718;  290.487;  363.623; 0.35585
 235.20;  325.687;  295.152;  359.264; 0.32213
 235.80;  308.525;  295.330;  365.432; 0.72532
 236.40;  320.145;  302.765;  379.044; 0.64234
 237.00;  325.913;  303.584;  384.824; 0.56090
 237.60;  336.056;  294.000;  377.651; 0.29864
 238.20;  334.623;  295.121;  389.214; 0.37694
 238.80;  335.431;  274.112;  389.668; 0.27520
 239.40;  341.856;  279.177;  403.402; 0.29708
 240.00;  343.093;  284.599;  402.640; 0.30492
 240.59;  335.741;  298.133;  401.312; 0.43831
 241.19;  340.499;  297.989;  399.745; 0.37907
 241.79;  349.807;  288.710;  384.715; 0.19627
 242.39;  352.009;  292.222;  383.909; 0.18570
 242.99;  335.548;  286.642;  375.121; 0.25748
 243.59;  318.170;  289.230;  388.763; 0.53647
 244.19;  324.978;  286.160;  385.560; 0.40835
 244.79;  335.424;  287.511;  384.652; 0.30695
 245.39;  323.663;  287.293;  395.554; 0.47373
 245.98;  321.561;  273.053;  391.453; 0.38754
 246.58;  304.718;  274.487;  389.290; 0.57949
 247.18;  331.446;  285.342;  384.364; 0.33199
 247.78;  329.522;  295.696;  398.758; 0.48385
 248.38;  335.265;  288.656;  421.162; 0.45376
 248.98;  328.398;  277.356;  419.988; 0.44629
 249.58;  340.415;  265.673;  430.671; 0.34392
 250.17;  355.940;  275.285;  426.842; 0.27394
 250.77;  349.730;  283.143;  431.967; 0.34929
 251.37;  323.167;  286.929;  425.089; 0.58122
 251.97;  316.898;  270.293;  429.805; 0.53436
 252.57;  313.991;  265.298;  436.882; 0.54701
 253.17;  322.599;  272.929;  449.172; 0.55002
 253.77;  323.382;  284.186;  466.282; 0.66706
 254.36;  332.230;  295.474;  468.774; 0.67348
 254.96;  339.019;  295.333;  480.567; 0.62738
 255.56;  339.087;  288.604;  484.301; 0.58844
 256.16;  335.975;  278.462;  506.509; 0.59826
 256.76;  335.574;  277.524;  496.109; 0.57582
 257.36;  333.075;  276.735;  508.603; 0.61443
 257.95;  327.191;  264.992;  503.713; 0.58411
 258.55;  329.220;  264.239;  518.084; 0.59178
 259.15;  329.596;  260.564;  510.454; 0.55870
 259.75;  345.137;  269.345;  523.998; 0.52632
 260.35;  347.080;  267.461;  538.318; 0.53172
 260.94;  344.823;  268.819;  539.764; 0.55204
 261.54;  338.840;  275.530;  547.771; 0.63348
 262.14;  342.524;  279.723;  553.422; 0.63931
 262.74;  349.626;  296.084;  592.169; 0.74273
 263.34;  342.053;  285.302;  604.600; 0.75022
 263.93;  330.329;  271.414;  619.201; 0.77109
 264.53;  335.577;  269.158;  628.783; 0.73356
 265.13;  338.341;  270.950;  628.566; 0.72481
 265.73;  343.583;  275.426;  648.466; 0.73824
 266.33;  353.528;  278.566;  678.397; 0.72703
 266.92;  347.485;  275.029;  689.673; 0.75760
 267.52;  357.200;  279.954;  705.726; 0.74130
 268.12;  352.062;  273.264;  717.281; 0.75088
 268.72;  374.607;  281.951;  749.175; 0.70265
 269.31;  372.265;  293.596;  782.505; 0.79342
 269.91;  367.792;  296.813;  783.686; 0.83629
 270.51;  361.879;  298.884;  823.747; 0.92074
 271.11;  368.496;  296.018;  844.685; 0.87910
 271.70;  360.483;  281.274;  877.686; 0.87677
 272.30;  359.695;  270.568;  887.924; 0.84053
 272.90;  350.857;  264.784;  909.412; 0.87444
 273.50;  361.320;  274.785;  916.521; 0.87016
 274.09;  368.657;  285.359;  947.539; 0.90034
 274.69;  372.120;  293.425;  961.690; 0.92900
 275.29;  354.481;  297.126; 1011.041; 1.09507
 275.89;  361.306;  301.162; 1057.168; 1.09933
 276.48;  379.862;  306.441; 1108.365; 1.03831
 277.08;  414.508;  303.217; 1149.330; 0.88097
 277.68;  411.429;  300.562; 1156.928; 0.88786
 278.28;  404.889;  297.934; 1188.748; 0.92058
 278.87;  418.351;  305.120; 1219.213; 0.90703
 279.47;  432.507;  316.402; 1279.019; 0.91860
 280.07;  453.695;  311.564; 1306.537; 0.84512
 280.66;  438.624;  305.599; 1329.806; 0.88645
 281.26;  450.763;  299.502; 1356.605; 0.84439
 281.86;  449.292;  299.353; 1408.460; 0.86906
 282.46;  467.492;  289.111; 1464.667; 0.81889
 283.05;  467.680;  270.001; 1525.842; 0.80297
 283.65;  486.420;  269.267; 1577.248; 0.77983
 284.25;  489.161;  276.537; 1628.707; 0.80342
 284.84;  495.918;  297.639; 1660.819; 0.83728
 285.44;  516.474;  304.585; 1722.349; 0.82549
 286.04;  522.762;  306.626; 1767.304; 0.82983
 286.63;  547.322;  299.604; 1827.551; 0.79015
 287.23;  549.025;  285.934; 1878.582; 0.78201
 287.83;  581.431;  285.987; 1956.635; 0.75241
 288.42;  601.607;  282.947; 2012.456; 0.73460
 289.02;  648.163;  281.018; 2081.351; 0.69052
 289.62;  659.484;  274.153; 2105.373; 0.67691
 290.21;  681.324;  278.965; 2173.882; 0.67298
 290.81;  701.964;  296.139; 2171.832; 0.66482
 291.41;  737.742;  301.675; 2217.279; 0.64275
 292.00;  747.719;  287.695; 2273.257; 0.63510
 292.60;  761.051;  266.816; 2355.570; 0.62595
 293.20;  770.092;  269.053; 2441.953; 0.63717
 293.79;  803.321;  275.331; 2498.541; 0.62435
 294.39;  813.562;  284.326; 2544.463; 0.63049
 294.99;  834.207;  280.435; 2588.095; 0.61984
 295.58;  857.095;  284.687; 2619.961; 0.61063
 296.18;  883.041;  271.100; 2672.236; 0.59371
 296.78;  916.995;  267.474; 2741.524; 0.58082
 297.37;  973.374;  256.039; 2819.912; 0.55317
 297.97; 1003.907;  255.858; 2927.442; 0.55284
 298.57; 1050.352;  262.727; 2989.557; 0.53934
 299.16; 1066.558;  278.359; 3083.789; 0.55136
 299.76; 1093.467;  281.775; 3176.366; 0.55220
 300.35; 1114.817;  281.214; 3269.362; 0.55444
 300.95; 1159.575;  278.404; 3324.462; 0.53868
 301.55; 1197.269;  287.229; 3346.846; 0.52661
 302.14; 1241.443;  278.314; 3431.366; 0.51505
 302.74; 1259.608;  277.164; 3537.862; 0.52100
 303.33; 1304.998;  277.506; 3665.575; 0.51817
 303.93; 1350.030;  284.053; 3763.621; 0.51378
 304.53; 1423.145;  290.889; 3809.743; 0.49246
 305.12; 1479.155;  285.666; 3889.067; 0.47989
 305.72; 1515.174;  304.345; 3962.749; 0.48021
 306.31; 1529.577;  292.556; 4062.826; 0.48400
 306.91; 1549.654;  290.122; 4183.574; 0.49013
 307.51; 1581.488;  280.000; 4278.734; 0.48748
 308.10; 1636.474;  295.710; 4394.048; 0.48526
 308.70; 1696.148;  291.190; 4468.751; 0.47326
 309.29; 1727.862;  287.634; 4547.826; 0.47100
 309.89; 1767.065;  264.902; 4638.675; 0.46414
 310.48; 1833.180;  273.673; 4739.754; 0.45694
 311.08; 1907.539;  268.620; 4876.118; 0.44891
 311.68; 1970.447;  273.221; 4959.384; 0.44108
 312.27; 2038.683;  278.703; 5074.278; 0.43533
 312.87; 2098.266;  271.869; 5225.848; 0.43336
 313.46; 2146.095;  276.691; 5385.013; 0.43658
 314.06; 2163.308;  276.193; 5529.885; 0.44467
 314.65; 2211.658;  282.238; 5632.559; 0.44295
 315.25; 2273.364;  283.262; 5774.255; 0.44078
 315.85; 2331.319;  277.637; 5914.876; 0.43853
 316.44; 2418.048;  287.913; 6071.938; 0.43382
 317.04; 2467.771;  295.255; 6216.984; 0.43549
 317.63; 2564.447;  310.823; 6400.341; 0.43170
 318.23; 2626.044;  298.737; 6546.296; 0.42886
 318.82; 2697.311;  293.221; 6674.883; 0.42398
 319.42; 2743.983;  273.276; 6781.545; 0.42064
 320.01; 2786.728;  280.055; 6929.646; 0.42370
 320.61; 2835.424;  290.511; 7164.652; 0.43155
 321.20; 2877.750;  285.758; 7272.939; 0.43067
 321.80; 2966.173;  292.860; 7497.718; 0.43058
 322.39; 3054.953;  275.154; 7636.540; 0.42295
 322.99; 3137.959;  275.755; 7857.556; 0.42307
 323.58; 3218.630;  286.597; 7977.531; 0.41881
 324.18; 3290.460;  287.901; 8124.673; 0.41665
 324.77; 3358.453;  292.485; 8318.013; 0.41791
 325.37; 3434.937;  278.984; 8442.167; 0.41273
 325.96; 3503.740;  276.253; 8588.958; 0.41088
 326.56; 3601.541;  298.768; 8771.095; 0.40912
 327.15; 3659.880;  300.036; 8947.778; 0.41058
 327.75; 3758.636;  300.925; 9129.536; 0.40710
 328.34; 3852.956;  272.723; 9291.838; 0.40125
 328.94; 3931.371;  266.072; 9447.905; 0.39882
 329.53; 3996.343;  277.765; 9658.876; 0.40188
 330.13; 4063.911;  293.098; 9872.460; 0.40490
 330.72; 4121.985;  297.428;10112.576; 0.40932
 331.32; 4237.137;  296.807;10347.750; 0.40667
 331.91; 4317.465;  286.021;10578.045; 0.40704
 332.51; 4464.554;  290.846;10832.428; 0.40238
 333.10; 4495.149;  280.941;11112.686; 0.40998
 333.69; 4550.660;  268.720;11343.870; 0.41271
 334.29; 4551.095;  259.020;11372.294; 0.41317
 334.88; 4570.037;  263.526;11404.218; 0.41279
 335.48; 4590.317;  274.151;11347.513; 0.40918
 336.07; 4622.491;  277.361;11521.065; 0.41291
 336.67; 4679.518;  271.793;11561.792; 0.40848
 337.26; 4718.465;  270.478;11724.744; 0.41080
 337.86; 4729.494;  274.661;11795.073; 0.41264
 338.45; 4790.329;  285.081;11996.201; 0.41488
 339.04; 4854.178;  280.248;12122.714; 0.41315
 339.64; 4938.616;  279.247;12324.855; 0.41250
 340.23; 4981.631;  276.541;12444.594; 0.41265
 340.83; 5060.369;  283.446;12579.002; 0.41060
 341.42; 5133.183;  284.034;12728.085; 0.40930
 342.02; 5215.829;  280.810;12860.717; 0.40639
 342.61; 5252.892;  285.029;12994.842; 0.40797
 343.20; 5325.387;  280.703;13173.363; 0.40751
 343.80; 5381.564;  275.024;13326.514; 0.40753
 344.39; 5452.512;  277.525;13574.777; 0.40985
 344.99; 5533.652;  284.701;13698.586; 0.40748
 345.58; 5623.065;  281.629;13941.331; 0.40778
 346.17; 5641.688;  272.425;14086.941; 0.41042
 346.77; 5672.593;  263.601;14425.499; 0.41801
 347.36; 5740.176;  267.766;14640.403; 0.41936
 347.96; 5849.851;  271.456;14918.073; 0.41923
 348.55; 5920.844;  272.039;15018.413; 0.41673
 349.14; 6005.354;  269.152;15148.264; 0.41395
 349.74; 6100.741;  282.193;15379.635; 0.41409
 350.33; 6224.729;  292.264;15619.281; 0.41222
 350.92; 6319.522;  292.029;15990.758; 0.41573
 351.52; 6469.135;  276.988;16197.719; 0.41012
 352.11; 6527.115;  277.642;16449.038; 0.41290
 352.70; 6576.879;  293.221;16652.467; 0.41555
 353.30; 6606.778;  299.069;16923.354; 0.42087
 353.89; 6722.243;  289.556;17199.826; 0.41976
 354.49; 6828.865;  295.537;17471.125; 0.41978
 355.08; 6963.320;  303.789;17648.240; 0.41572
 355.67; 7019.295;  306.509;17850.877; 0.41723
 356.27; 7098.508;  292.678;18013.082; 0.41559
 356.86; 7121.140;  288.376;18230.048; 0.41927
 357.45; 7238.089;  297.756;18507.331; 0.41892
 358.05; 7304.051;  297.214;18684.613; 0.41900
 358.64; 7397.399;  292.504;18894.298; 0.41800
 359.23; 7427.257;  289.300;19081.825; 0.42041
 359.83; 7492.487;  289.121;19433.380; 0.42450
 360.42; 7630.362;  293.174;19722.600; 0.42293
 361.01; 7705.595;  287.355;19981.487; 0.42404
 361.61; 7805.998;  287.502;20183.522; 0.42264
 362.20; 7845.197;  294.987;20496.718; 0.42743
 362.79; 7942.085;  302.910;20634.303; 0.42512
 363.38; 7988.279;  301.613;20815.514; 0.42631
 363.98; 8011.831;  289.171;20943.715; 0.42725
 364.57; 8115.600;  277.744;21176.149; 0.42592
 365.16; 8231.257;  288.573;21351.502; 0.42355
 365.76; 8325.363;  293.720;21537.287; 0.42242
 366.35; 8354.641;  294.920;21731.542; 0.42484
 366.94; 8407.247;  286.459;21913.791; 0.42540
 367.53; 8515.250;  286.426;22067.466; 0.42274
 368.13; 8611.259;  291.994;22246.489; 0.42144
 368.72; 8636.391;  285.482;22413.295; 0.42320
 369.31; 8606.113;  292.281;22597.374; 0.42860
 369.91; 8619.270;  283.382;22746.877; 0.43053
 370.50; 8710.152;  291.699;22820.059; 0.42750
 371.09; 8802.033;  278.017;22946.909; 0.42479
 371.68; 8891.454;  286.967;23106.324; 0.42358
 372.28; 8963.703;  294.984;23340.584; 0.42463
 372.87; 9027.615;  297.367;23443.502; 0.42345
 373.46; 9100.055;  297.723;23614.255; 0.42307
 374.05; 9153.972;  287.889;23758.158; 0.42279
 374.65; 9179.300;  290.440;23950.173; 0.42516
 375.24; 9138.141;  272.918;24146.349; 0.43023
 375.83; 9209.486;  275.848;24331.370; 0.43019
 376.42; 9315.653;  273.516;24515.563; 0.42830
 377.02; 9526.257;  293.907;24527.502; 0.41911
 377.61; 9602.764;  288.112;24762.668; 0.41955
 378.20; 9718.230;  297.747;24944.118; 0.41768
 378.79; 9765.335;  297.015;25086.217; 0.41799
 379.38; 9801.574;  282.191;25204.109; 0.41797
 379.98; 9863.282;  267.243;25344.469; 0.41719
 380.57; 9924.196;  272.112;25606.751; 0.41909
 381.16;10004.551;  291.609;25727.129; 0.41809
 381.75;10074.573;  289.589;25767.151; 0.41560
 382.35;10143.683;  283.703;25937.612; 0.41528
 382.94;10258.102;  271.231;26182.039; 0.41405
 383.53;10366.828;  279.541;26558.760; 0.41584
 384.12;10435.713;  269.432;26865.627; 0.41766
 384.71;10565.778;  284.069;27028.687; 0.41517
 385.31;10687.287;  287.699;27353.893; 0.41541
 385.90;10845.488;  299.731;27598.110; 0.41306
 386.49;11009.720;  283.306;27919.987; 0.41103
 387.08;11164.682;  296.763;28085.602; 0.40772
 387.67;11352.338;  302.047;28384.267; 0.40506
 388.26;11413.148;  312.463;28670.094; 0.40732
 388.86;11547.809;  297.866;29041.131; 0.40739
 389.45;11607.613;  285.685;29324.329; 0.40906
 390.04;11734.092;  279.860;29566.863; 0.40771
 390.63;11830.839;  284.795;29878.048; 0.40876
 391.22;11985.132;  294.422;30097.179; 0.40642
 391.81;12125.532;  303.408;30368.117; 0.40536
 392.41;12304.470;  324.211;30517.642; 0.40145
 393.00;12443.471;  349.022;30747.606; 0.40027
 393.59;12617.081;  379.676;31111.212; 0.39989
 394.18;12695.671;  399.780;31505.223; 0.40308
 394.77;12858.534;  433.703;31930.599; 0.40398
 395.36;13000.378;  473.557;32244.356; 0.40419
 395.95;13107.090;  524.323;32561.017; 0.40587
 396.55;13255.237;  566.236;32856.406; 0.40564
 397.14;13489.706;  594.577;33298.717; 0.40418
 397.73;13690.546;  601.786;33627.642; 0.40196
 398.32;13816.044;  612.294;34204.404; 0.40554
 398.91;13991.230;  621.039;34614.988; 0.40526
 399.50;14274.096;  632.059;35200.379; 0.40380
 400.09;14626.336;  605.452;35675.306; 0.39816
 400.68;14925.211;  582.293;36366.134; 0.39705
 401.27;15183.452;  548.561;37014.694; 0.39650
 401.87;15433.058;  525.771;37604.957; 0.39573
 402.46;15675.288;  501.053;38119.893; 0.39430
 403.05;16032.473;  484.389;38675.942; 0.39029
 403.64;16362.023;  490.521;39240.769; 0.38766
 404.23;16685.048;  484.797;39841.080; 0.38549
 404.82;16928.344;  502.588;40438.695; 0.38584
 405.41;17188.496;  491.629;41140.816; 0.38642
 406.00;17486.736;  497.890;41752.976; 0.38531
 406.59;17691.008;  479.966;42383.807; 0.38645
 407.18;17861.334;  482.149;42943.385; 0.38796
 407.77;18009.325;  466.520;43500.038; 0.38971
 408.37;18282.596;  484.641;43973.019; 0.38800
 408.96;18540.419;  491.806;44465.898; 0.38675
 409.55;18749.481;  504.476;44970.283; 0.38688
 410.14;18998.711;  481.626;45459.452; 0.38543
 410.73;19342.070;  490.299;45905.805; 0.38185
 411.32;19671.689;  492.855;46441.730; 0.37945
 411.91;19914.236;  505.687;47060.216; 0.37997
 412.50;19991.684;  480.732;47624.639; 0.38315
 413.09;20204.163;  484.505;48110.411; 0.38294
 413.68;20351.370;  482.467;48573.257; 0.38389
 414.27;20454.364;  487.472;48936.919; 0.38498
 414.86;20533.765;  462.470;49236.309; 0.38561
 415.45;20778.236;  452.555;49687.411; 0.38423
 416.04;21063.593;  462.743;50083.734; 0.38178
 416.63;21371.137;  468.551;50542.275; 0.37941
 417.22;21409.221;  461.867;50754.683; 0.38038
 417.81;21545.699;  462.159;51068.477; 0.38026
 418.40;21550.243;  476.694;51393.675; 0.38312
 418.99;21689.786;  477.832;51737.830; 0.38320
 419.58;21764.390;  462.218;51969.382; 0.38344
 420.17;21834.748;  452.952;52248.392; 0.38425
 420.76;21958.208;  458.593;52499.836; 0.38392
 421.35;22173.807;  472.988;53005.769; 0.38395
 421.94;22191.211;  474.287;53203.501; 0.38525
 422.53;22174.030;  469.601;53402.299; 0.38718
 423.12;22146.581;  471.552;53493.823; 0.38850
 423.71;22221.650;  463.366;53670.857; 0.38835
 424.30;22344.324;  471.573;53819.883; 0.38722
 424.89;22425.784;  477.611;53888.037; 0.38623
 425.48;22487.480;  477.854;53974.356; 0.38571
 426.07;22401.534;  465.438;53940.695; 0.38699
 426.66;22217.039;  460.097;54040.507; 0.39141
 427.25;22099.328;  453.014;53995.096; 0.39331
 427.84;22092.970;  450.549;53912.043; 0.39274
 428.43;22019.374;  452.848;53711.442; 0.39261
 429.02;21899.157;  457.772;53797.552; 0.39580
 429.61;21727.412;  448.720;53826.107; 0.39941
 430.20;21652.100;  425.820;53758.443; 0.40012
 430.79;21617.567;  437.001;53531.580; 0.39911
 431.38;21439.883;  442.471;53315.543; 0.40107
 431.97;21266.134;  451.391;53001.434; 0.40220
 432.55;21094.377;  445.807;52690.011; 0.40315
 433.14;21086.112;  441.412;52704.411; 0.40339
 433.73;21061.460;  432.971;52655.054; 0.40339
 434.32;20917.372;  424.624;52606.263; 0.40592
 434.91;20710.514;  423.161;52233.737; 0.40719
 435.50;20431.320;  418.064;51971.869; 0.41094
 436.09;20182.780;  418.432;51687.970; 0.41398
 436.68;20000.138;  422.559;51624.303; 0.41753
 437.27;19912.649;  439.214;51661.122; 0.42001
 437.86;19799.115;  433.576;51508.561; 0.42118
 438.45;19680.876;  436.794;51330.326; 0.42237
 439.04;19528.853;  419.148;51043.637; 0.42311
 439.62;19419.885;  412.025;51000.963; 0.42512
 440.21;19279.324;  413.441;50885.373; 0.42737
 440.80;19086.154;  430.263;51024.538; 0.43329
 441.39;18898.095;  449.560;51081.161; 0.43846
 441.98;18686.914;  447.874;51020.625; 0.44291
 442.57;18558.555;  436.530;50797.219; 0.44388
 443.16;18413.943;  425.660;50702.578; 0.44638
 443.75;18292.303;  431.481;50788.909; 0.45016
 444.33;18128.779;  435.018;50969.383; 0.45577
 444.92;17929.409;  440.355;50892.685; 0.46011
 445.51;17790.421;  417.614;50850.986; 0.46285
 446.10;17678.019;  410.612;51056.876; 0.46732
 446.69;17707.708;  404.712;51275.545; 0.46835
 447.28;17637.567;  420.929;51457.726; 0.47194
 447.87;17517.567;  412.657;51329.383; 0.47374
 448.45;17357.614;  413.036;51412.748; 0.47854
 449.04;17243.525;  390.874;51445.980; 0.48137
 449.63;17229.182;  386.972;51646.289; 0.48337
 450.22;17102.034;  381.501;51835.467; 0.48817
 450.81;16975.119;  386.090;52100.884; 0.49379
 451.40;16784.049;  391.666;52058.120; 0.49857
 451.98;16695.694;  398.229;52052.065; 0.50098
 452.57;16610.437;  403.856;52211.469; 0.50470
 453.16;16473.656;  401.626;52273.023; 0.50886
 453.75;16320.018;  391.994;52359.708; 0.51357
 454.34;16248.347;  388.814;52215.013; 0.51426
 454.93;16177.052;  395.232;52494.699; 0.51868
 455.51;16081.587;  391.805;52615.216; 0.52225
 456.10;15929.167;  402.670;52907.445; 0.52913
 456.69;15778.776;  396.116;53041.712; 0.53433
 457.28;15672.935;  403.304;53288.203; 0.53950
 457.87;15506.744;  395.902;53216.666; 0.54352
 458.45;15468.812;  396.108;53304.691; 0.54533
 459.04;15429.200;  388.965;53401.373; 0.54712
 459.63;15354.994;  395.666;53676.141; 0.55166
 460.22;15216.996;  396.420;53639.128; 0.55540
 460.80;15094.000;  400.600;53692.823; 0.55954
 461.39;15043.396;  392.483;53895.895; 0.56252
 461.98;15091.987;  393.792;54364.115; 0.56489
 462.57;15124.525;  398.874;54782.941; 0.56740
 463.16;15108.216;  397.668;55197.607; 0.57115
 463.74;15095.487;  387.726;55673.212; 0.57506
 464.33;15072.373;  376.102;56213.777; 0.57972
 464.92;15138.650;  370.427;56547.398; 0.58023
 465.51;15121.305;  357.831;56911.710; 0.58327
 466.09;15129.192;  358.204;57352.888; 0.58642
 466.68;15101.443;  361.518;57898.436; 0.59145
 467.27;15072.648;  372.331;58292.638; 0.59550
 467.86;15032.745;  368.243;58560.733; 0.59860
 468.44;15008.274;  363.094;58919.922; 0.60188
 469.03;14999.507;  361.882;59322.152; 0.60509
 469.62;15019.087;  367.807;59788.037; 0.60806
 470.20;15111.410;  365.300;60231.337; 0.60850
 470.79;15181.268;  374.762;60677.863; 0.60989
 471.38;15210.909;  358.816;61146.166; 0.61203
 471.97;15212.483;  359.020;61564.389; 0.61496
 472.55;15173.448;  350.111;61933.679; 0.61852
 473.14;15168.713;  362.234;62406.602; 0.62225
 473.73;15143.346;  355.473;62971.535; 0.62678
 474.31;15177.293;  347.428;63489.444; 0.62918
 474.90;15216.450;  350.797;63899.238; 0.63092
 475.49;15233.118;  352.737;64160.914; 0.63226
 476.07;15179.506;  357.870;64473.326; 0.63607
 476.66;15143.379;  347.892;64752.829; 0.63879
 477.25;15123.585;  340.581;65000.332; 0.64087
 477.84;15124.453;  352.761;65155.193; 0.64216
 478.42;15073.216;  344.733;65155.945; 0.64349
 479.01;15035.940;  344.681;65156.001; 0.64459
 479.60;15015.791;  330.210;65156.511; 0.64486
 480.18;15076.562;  334.265;65158.257; 0.64317
 480.77;15016.136;  342.135;65159.480; 0.64514
 481.35;15064.694;  347.900;65159.373; 0.64384
 481.94;14997.173;  344.738;65159.188; 0.64576
 482.53;15002.252;  335.059;65159.923; 0.64539
 483.11;14816.716;  332.000;65160.709; 0.65086
 483.70;14780.741;  318.067;65161.719; 0.65162
 484.29;14754.036;  316.585;65163.324; 0.65240
 484.87;14755.604;  306.461;65164.542; 0.65212
 485.46;14672.998;  315.710;65164.272; 0.65483
 486.05;14584.959;  319.958;65162.920; 0.65759
 486.63;14523.621;  321.237;65162.258; 0.65949
 487.22;14403.948;  317.302;65162.909; 0.66307
 487.81;14332.428;  323.288;65164.368; 0.66544
 488.39;14202.203;  331.856;65164.474; 0.66971
 488.98;14123.451;  337.207;65163.733; 0.67231
 489.56;14005.527;  317.228;65164.794; 0.67554
 490.15;13927.460;  310.772;65166.371; 0.67788
 490.74;13800.892;  302.771;65167.454; 0.68173
 491.32;13660.241;  305.937;65168.774; 0.68637
 491.91;13489.547;  316.111;64974.057; 0.69092
 492.49;13312.132;  317.823;64712.314; 0.69510
 493.08;13110.272;  332.939;64167.133; 0.69861
 493.67;12881.022;  325.500;63724.219; 0.70325
 494.25;12733.659;  343.920;63105.848; 0.70463
 494.84;12565.240;  335.724;62474.087; 0.70595
 495.42;12425.246;  338.386;61959.759; 0.70742
 496.01;12228.809;  319.873;61399.648; 0.71002
 496.59;12060.282;  310.443;60754.114; 0.71132
 497.18;11943.319;  311.106;60078.479; 0.71080
 497.77;11832.161;  311.733;59331.632; 0.70953
 498.35;11713.670;  326.966;58841.796; 0.71087
 498.94;11650.083;  324.499;58030.218; 0.70716
 499.52;11508.393;  324.914;57567.186; 0.70914
 500.11;11421.828;  311.275;56906.600; 0.70704
 500.69;11257.803;  304.601;56449.246; 0.70977
 501.28;11167.600;  315.149;55764.708; 0.70837
 501.86;11055.042;  317.653;55155.772; 0.70818
 502.45;10968.333;  338.264;54632.693; 0.70822
 503.03;10887.291;  328.939;54106.656; 0.70701
 503.62;10785.369;  339.385;53665.090; 0.70799
 504.20;10720.255;  326.215;53123.968; 0.70583
 504.79;10690.448;  326.766;52666.148; 0.70331
 505.37;10638.819;  326.582;52358.543; 0.70292
 505.96;10620.698;  332.269;51859.105; 0.69968
 506.55;10650.782;  327.706;51491.158; 0.69515
 507.13;10822.399;  315.837;51254.709; 0.68559
 507.72;10900.768;  312.954;51138.387; 0.68127
 508.30;11040.327;  319.265;50944.634; 0.67413
 508.89;11070.512;  316.460;50626.145; 0.67008
 509.47;11189.098;  308.593;50383.056; 0.66297
 510.05;11261.578;  311.037;50305.214; 0.65948
 510.64;11430.561;  312.992;50205.541; 0.65203
 511.22;11560.497;  326.961;50242.492; 0.64772
 511.81;11718.517;  323.186;50282.527; 0.64189
 512.39;11853.267;  329.747;50266.280; 0.63683
 512.98;11992.109;  310.647;50213.110; 0.63062
 513.56;12211.310;  306.947;50200.284; 0.62234
 514.15;12367.885;  297.484;50225.841; 0.61663
 514.73;12616.714;  293.306;50310.339; 0.60839
 515.32;12822.751;  298.909;50412.714; 0.60222
 515.90;13034.850;  306.909;50529.464; 0.59614
 516.49;13231.002;  321.223;50576.262; 0.59026
 517.07;13386.890;  323.415;50501.804; 0.58446
 517.66;13627.049;  325.663;50468.951; 0.57632
 518.24;13845.206;  330.491;50581.443; 0.57034
 518.82;14032.876;  322.791;50433.118; 0.56289
 519.41;14265.017;  321.449;50483.238; 0.55600
 519.99;14532.750;  304.901;50520.942; 0.54770
 520.58;14924.331;  313.039;50964.514; 0.53990
 521.16;15214.986;  316.114;51139.212; 0.53291
 521.75;15539.245;  315.579;51354.849; 0.52539
 522.33;15782.252;  314.722;51552.832; 0.52017
 522.91;16114.903;  303.280;51724.449; 0.51217
 523.50;16467.882;  304.661;51708.091; 0.50246
 524.08;16812.990;  292.957;51816.521; 0.49399
 524.67;17129.972;  296.699;52029.160; 0.48759
 525.25;17432.120;  294.898;52244.306; 0.48164
 525.83;17685.160;  300.195;52281.679; 0.47567
 526.42;18005.476;  299.604;52255.985; 0.46752
 527.00;18238.150;  297.414;52315.968; 0.46232
 527.59;18598.254;  293.742;52194.390; 0.45261
 528.17;18954.997;  296.702;52169.461; 0.44407
 528.75;19275.655;  314.407;52237.781; 0.43750
 529.34;19494.410;  317.963;52410.206; 0.43400
 529.92;19647.231;  322.096;52599.701; 0.43219
 530.50;19856.960;  308.099;52577.086; 0.42712
 531.09;20096.131;  310.277;52580.588; 0.42190
 531.67;20331.935;  319.699;52493.409; 0.41616
 532.25;20681.490;  331.224;52474.618; 0.40863
 532.84;20788.975;  319.265;52286.406; 0.40462
 533.42;20933.029;  303.579;52069.121; 0.39955
 534.00;20988.850;  296.379;51800.283; 0.39603
 534.59;21244.586;  306.923;51692.027; 0.38991
 535.17;21484.531;  307.396;51484.292; 0.38321
 535.75;21551.948;  311.833;51399.345; 0.38116
 536.34;21770.244;  327.170;51106.314; 0.37440
 536.92;21827.935;  323.362;50970.357; 0.37202
 537.50;22119.621;  320.767;50555.361; 0.36257
 538.09;22241.540;  304.234;50224.272; 0.35709
 538.67;22403.280;  307.957;49849.711; 0.35067
 539.25;22428.797;  292.004;49517.578; 0.34708
 539.84;22498.678;  298.382;49195.084; 0.34292
 540.42;22657.712;  287.620;48747.408; 0.33571
 541.00;22742.579;  304.712;48328.615; 0.33048
 541.59;22807.764;  293.453;47996.146; 0.32608
 542.17;22880.276;  303.713;47681.974; 0.32192
 542.75;23002.403;  301.687;47449.085; 0.31742
 543.33;23058.740;  321.928;47035.436; 0.31271
 543.92;23039.425;  322.791;46647.473; 0.30947
 544.50;23049.627;  319.637;46212.001; 0.30514
 545.08;23176.376;  303.653;45900.067; 0.29961
 545.67;23312.839;  304.594;45544.519; 0.29364
 546.25;23516.252;  306.855;45243.598; 0.28694
 546.83;23573.548;  305.919;44881.223; 0.28234
 547.41;23623.956;  307.185;44485.963; 0.27755
 548.00;23550.406;  304.048;44073.416; 0.27482
 548.58;23516.681;  293.554;43651.340; 0.27115
 549.16;23522.314;  273.252;43462.973; 0.26897
 549.74;23608.348;  276.221;43125.006; 0.26398
 550.33;23642.050;  287.338;42789.017; 0.26003
 550.91;23777.504;  287.502;42328.145; 0.25279
 551.49;23859.400;  275.114;42084.067; 0.24865
 552.07;24053.012;  281.527;41894.675; 0.24317
 552.66;24131.937;  296.715;41696.915; 0.23978
 553.24;24265.828;  301.874;41407.799; 0.23435
 553.82;24380.437;  287.046;41262.389; 0.23062
 554.40;24517.368;  287.502;41018.645; 0.22558
 554.98;24595.232;  286.839;40927.197; 0.22320
 555.57;24706.461;  295.511;40724.442; 0.21911
 556.15;24783.549;  295.794;40729.857; 0.21780
 556.73;24844.563;  289.872;40584.856; 0.21512
 557.31;24998.157;  280.087;40487.094; 0.21129
 557.89;25082.637;  267.680;40402.230; 0.20880
 558.48;25352.555;  270.725;40389.487; 0.20399
 559.06;25501.378;  269.279;40492.969; 0.20253
 559.64;25790.096;  288.172;40421.363; 0.19693
 560.22;25957.551;  308.276;40298.501; 0.19288
 560.80;26212.496;  311.749;40155.433; 0.18705
 561.39;26312.226;  300.174;40123.139; 0.18496
 561.97;26493.234;  304.256;40118.465; 0.18192
 562.55;26681.364;  305.864;40159.584; 0.17927
 563.13;26937.264;  307.652;40244.814; 0.17601
 563.71;27230.431;  295.320;40343.674; 0.17227
 564.29;27369.239;  296.315;40286.513; 0.16942
 564.88;27492.441;  280.495;40218.374; 0.16663
 565.46;27481.531;  277.260;40267.767; 0.16732
 566.04;27697.340;  269.464;40338.574; 0.16462
 566.62;27962.873;  292.162;40520.457; 0.16251
 567.20;28274.093;  292.265;40647.678; 0.15903
 567.78;28381.164;  300.170;40851.754; 0.15960
 568.36;28621.498;  300.837;41002.754; 0.15751
 568.94;28881.944;  296.460;41004.189; 0.15353
 569.53;29098.952;  295.816;41099.192; 0.15126
 570.11;29301.923;  283.902;41113.488; 0.14831
 570.69;29499.025;  278.869;41248.245; 0.14678
 571.27;29776.042;  279.854;41227.262; 0.14246
 571.85;29906.672;  279.584;41295.220; 0.14126
 572.43;30149.026;  299.078;41479.213; 0.13974
 573.01;30375.358;  288.199;41566.526; 0.13734
 573.59;30597.488;  284.931;41522.011; 0.13367
 574.17;30695.422;  270.419;41423.650; 0.13117
 574.76;30900.842;  278.826;41529.098; 0.12939
 575.34;31140.740;  274.920;41725.997; 0.12806
 575.92;31347.603;  271.771;41808.186; 0.12601
 576.50;31390.580;  265.398;41828.507; 0.12560
 577.08;31537.791;  261.206;41866.048; 0.12392
 577.66;31762.794;  250.776;41875.013; 0.12087
 578.24;31908.958;  252.747;41879.155; 0.11891
 578.82;31983.711;  257.942;41897.583; 0.11809
 579.40;32055.671;  266.978;41903.210; 0.11720
 579.98;32256.090;  273.567;41841.961; 0.11385
 580.56;32322.777;  281.852;41853.319; 0.11309
 581.14;32424.290;  291.659;41917.834; 0.11242
 581.72;32532.372;  280.280;42082.244; 0.11264
 582.30;32837.613;  273.151;42074.467; 0.10845
 582.88;33029.431;  274.650;42152.288; 0.10671
 583.46;33113.614;  282.363;42189.821; 0.10600
 584.04;33243.231;  282.956;42171.457; 0.10410
 584.62;33399.580;  265.125;42197.830; 0.10227
 585.21;33634.525;  267.265;42241.428; 0.09966
 585.79;33766.786;  273.754;42392.009; 0.09952
 586.37;33767.419;  277.118;42415.309; 0.09976
 586.95;33860.604;  275.522;42455.787; 0.09896
 587.53;34014.998;  269.979;42469.819; 0.09710
 588.11;34261.424;  278.442;42585.262; 0.09515
 588.69;34453.673;  282.733;42557.865; 0.09243
 589.27;34560.280;  283.424;42506.477; 0.09055
 589.85;34646.750;  276.026;42443.602; 0.08879
 590.43;34738.425;  271.715;42599.939; 0.08923
 591.01;34875.995;  278.076;42722.853; 0.08877
 591.59;35056.084;  288.299;42936.945; 0.08873
 592.16;35263.796;  287.924;42891.657; 0.08568
 592.74;35315.866;  291.617;42886.045; 0.08498
 593.32;35335.463;  293.193;42739.948; 0.08325
 593.90;35269.824;  297.895;42708.966; 0.08376
 594.48;35375.887;  288.777;42603.037; 0.08134
 595.06;35464.307;  285.245;42684.475; 0.08107
 595.64;35606.065;  272.769;42709.242; 0.07956
 596.22;35599.965;  276.890;42757.472; 0.08013
 596.80;35691.791;  268.138;42505.619; 0.07640
 597.38;35655.739;  264.245;42457.558; 0.07634
 597.96;35700.087;  262.869;42299.911; 0.07417
 598.54;35708.580;  268.057;42320.734; 0.07429
 599.12;35769.263;  272.769;42174.074; 0.07204
 599.70;35773.472;  272.156;42133.628; 0.07157
 600.28;35754.381;  269.178;41999.881; 0.07041
 600.86;35707.084;  273.568;41898.236; 0.06994
 601.44;35760.167;  279.130;41816.989; 0.06845
 602.02;35656.828;  273.135;41601.984; 0.06745
 602.59;35709.687;  269.019;41487.164; 0.06559
 603.17;35655.497;  254.435;41427.991; 0.06560
 603.75;35652.519;  264.600;41407.036; 0.06543
 604.33;35620.514;  268.544;41269.041; 0.06438
 604.91;35451.782;  272.574;41056.648; 0.06420
 605.49;35461.878;  271.546;40985.067; 0.06332
 606.07;35282.053;  254.900;40828.877; 0.06384
 606.65;35211.546;  260.422;40696.701; 0.06331
 607.23;35088.628;  264.441;40448.820; 0.06218
 607.80;35055.175;  277.156;40221.379; 0.06015
 608.38;35094.962;  277.256;40025.464; 0.05752
 608.96;34959.511;  285.786;39921.000; 0.05808
 609.54;34838.208;  288.246;39743.725; 0.05766
 610.12;34523.858;  283.928;39528.375; 0.05925
 610.70;34310.456;  273.259;39095.265; 0.05712
 611.28;34133.259;  259.195;38813.390; 0.05620
 611.85;33953.084;  265.841;38433.913; 0.05423
 612.43;33757.447;  260.695;38304.961; 0.05529
 613.01;33551.988;  263.202;38019.161; 0.05469
 613.59;33432.281;  249.299;37795.112; 0.05365
 614.17;33290.239;  240.914;37668.085; 0.05402
 614.75;33003.690;  222.778;37521.205; 0.05607
 615.32;32872.940;  209.277;37291.775; 0.05510
 615.90;32771.724;  219.080;36866.572; 0.05146
 616.48;32557.132;  232.952;36658.988; 0.05188
 617.06;32234.305;  255.157;36308.488; 0.05208
 617.64;31979.291;  246.140;36072.812; 0.05269
 618.22;31873.326;  241.049;35666.522; 0.04919
 618.79;31685.418;  228.178;35515.632; 0.04990
 619.37;31453.467;  227.104;35180.352; 0.04897
 619.95;31167.086;  231.387;34894.600; 0.04941
 620.53;30868.988;  218.869;34491.494; 0.04852
 621.11;30507.765;  206.529;34156.975; 0.04939
 621.68;30416.153;  201.116;33920.700; 0.04766
 622.26;30425.918;  202.843;33803.106; 0.04600
 622.84;30204.525;  212.594;33643.042; 0.04714
 623.42;30008.884;  214.208;33340.072; 0.04603
 623.99;29766.303;  232.130;33128.823; 0.04683
 624.57;29720.015;  239.695;32874.211; 0.04414
 625.15;29554.078;  249.244;32723.283; 0.04460
 625.73;29365.908;  235.066;32483.448; 0.04415
 626.30;29246.924;  228.444;32290.122; 0.04331
 626.88;29027.077;  228.031;32032.596; 0.04311
 627.46;28761.913;  230.061;31766.787; 0.04349
 628.04;28540.656;  242.419;31549.234; 0.04388
 628.61;28294.195;  241.899;31249.103; 0.04349
 629.19;28110.201;  244.829;31015.066; 0.04307
 629.77;27887.565;  231.831;30736.758; 0.04258
 630.35;27757.644;  234.217;30562.869; 0.04215
 630.92;27646.682;  232.092;30375.921; 0.04122
 631.50;27465.885;  220.757;30199.145; 0.04152
 632.08;27290.413;  206.521;29949.680; 0.04068
 632.66;27056.871;  196.801;29744.460; 0.04142
 633.23;26860.165;  216.776;29426.430; 0.03994
 633.81;26635.763;  225.566;29138.020; 0.03931
 634.39;26495.188;  220.298;28844.754; 0.03720
 634.96;26380.897;  221.956;28624.791; 0.03574
 635.54;26195.637;  216.680;28606.896; 0.03855
 636.12;25906.346;  214.735;28334.976; 0.03923
 636.69;25735.308;  204.526;28222.591; 0.04037
 637.27;25632.241;  199.403;27913.834; 0.03731
 637.85;25502.811;  217.219;27696.062; 0.03613
 638.42;25196.070;  206.286;27392.989; 0.03659
 639.00;24955.849;  223.367;27259.457; 0.03868
 639.58;24687.320;  209.789;26981.612; 0.03891
 640.15;24503.204;  222.891;26790.445; 0.03910
 640.73;24361.653;  204.119;26492.226; 0.03671
 641.31;24231.768;  216.013;26471.006; 0.03872
 641.88;24054.551;  210.908;26285.787; 0.03885
 642.46;23924.333;  226.803;26132.901; 0.03870
 643.04;23814.782;  214.697;25934.349; 0.03735
 643.61;23703.231;  223.925;25817.463; 0.03745
 644.19;23507.681;  209.153;25659.577; 0.03837
 644.77;23397.130;  224.048;25468.358; 0.03718
 645.34;23304.912;  211.943;25293.805; 0.03588
 645.92;23153.694;  214.504;25070.586; 0.03485
 646.49;23077.810;  218.399;24938.033; 0.03398
 647.07;22987.926;  220.293;24745.814; 0.03230
 647.65;22866.708;  224.188;24564.928; 0.03141
 648.22;22646.824;  218.082;24391.042; 0.03252
 648.80;22573.940;  227.310;24368.156; 0.03354
 649.37;22454.056;  227.872;24339.937; 0.03537
 649.95;22425.838;  227.433;24242.051; 0.03415
 650.53;22251.954;  209.328;24121.165; 0.03535
 651.10;22133.403;  214.222;24054.279; 0.03648
 651.68;21968.852;  211.450;24020.060; 0.03913
 652.25;21936.968;  221.012;23899.174; 0.03757
 652.83;21866.750;  211.573;23700.955; 0.03531
 653.41;21813.866;  208.468;23524.069; 0.03308
 653.98;21717.982;  212.362;23340.850; 0.03160
 654.56;21708.431;  211.590;23307.630; 0.03116
 655.13;21684.546;  208.818;23285.744; 0.03123
 655.71;21538.329;  207.379;23284.525; 0.03417
 656.28;21399.445;  194.941;23185.639; 0.03512
 656.86;21220.227;  188.169;22962.753; 0.03457
 657.43;21224.676;  190.397;22872.868; 0.03276
 658.01;21296.792;  212.958;22793.315; 0.02978
 658.58;21451.241;  207.519;22876.096; 0.02819
 659.16;21396.690;  211.747;22798.876; 0.02783
 659.74;21352.472;  196.309;22777.324; 0.02831
 660.31;21226.588;  204.203;22714.438; 0.02970
 660.89;21253.371;  198.098;22687.885; 0.02862
 661.46;21189.820;  206.659;22545.999; 0.02720
 662.04;21127.269;  208.554;22516.780; 0.02793
 662.61;21098.384;  207.448;22500.894; 0.02822
 663.19;21019.500;  206.676;22626.342; 0.03230
 663.76;21039.616;  209.571;22600.456; 0.03138
 664.34;20998.732;  211.132;22526.237; 0.03079
 664.91;21159.514;  214.027;22413.684; 0.02526
 665.49;21223.963;  216.922;22441.798; 0.02447
 666.06;21303.746;  213.150;22513.246; 0.02422
 666.64;21286.528;  212.044;22555.693; 0.02540
 667.21;21373.310;  216.606;22500.140; 0.02254
 667.79;21353.093;  204.167;22400.588; 0.02099
 668.36;21278.875;  201.395;22402.702; 0.02256
 668.93;21207.658;  202.290;22421.149; 0.02439
 669.51;21120.440;  198.184;22426.263; 0.02629
 670.08;21009.223;  192.412;22387.044; 0.02783
 670.66;20936.338;  189.307;22273.825; 0.02713
 671.23;21042.787;  213.201;22361.606; 0.02666
 671.81;21155.236;  219.763;22403.720; 0.02516
 672.38;21229.019;  224.324;22501.167; 0.02554
 672.96;21104.135;  213.552;22510.281; 0.02829
 673.53;21172.250;  213.113;22482.395; 0.02633
 674.10;21219.033;  213.008;22524.843; 0.02619
 674.68;21338.482;  228.236;22505.290; 0.02336
 675.25;21305.598;  221.131;22417.404; 0.02232
 675.83;21232.380;  215.692;22370.185; 0.02290
 676.40;21204.496;  203.253;22300.299; 0.02209
 676.98;21107.945;  209.148;22323.413; 0.02455
 677.55;21016.394;  210.043;22281.527; 0.02564
 678.12;20964.843;  223.937;22260.975; 0.02633
 678.70;21027.625;  221.832;22236.089; 0.02452
 679.27;21053.741;  229.060;22163.870; 0.02256
 679.85;21020.190;  216.621;22124.984; 0.02247
 680.42;20954.306;  216.516;22133.431; 0.02402
 680.99;20908.088;  192.744;22099.212; 0.02428
 681.57;20848.871;  198.305;22028.659; 0.02413
 682.14;20747.987;  205.866;21848.773; 0.02267
 682.71;20699.102;  210.761;21795.554; 0.02264
 683.29;20655.551;  200.656;21706.668; 0.02176
 683.86;20514.667;  185.884;21546.116; 0.02149
 684.43;20347.116;  198.112;21362.230; 0.02135
 685.01;20247.899;  197.006;21197.011; 0.02009
 685.58;20197.348;  206.234;21272.458; 0.02275
 686.16;20323.130;  206.462;21269.239; 0.01996
 686.73;20334.913;  215.023;21397.686; 0.02235
 687.30;20381.362;  207.585;21388.467; 0.02116
 687.88;20232.477;  217.479;21321.914; 0.02302
 688.45;20043.260;  210.707;21118.362; 0.02293
 689.02;19920.042;  213.602;21022.142; 0.02363
 689.60;19871.158;  190.497;20889.257; 0.02190
 690.17;19902.940;  199.391;20926.704; 0.02200
 690.74;19900.723;  189.619;20805.485; 0.01949
 691.31;19836.172;  204.181;20824.932; 0.02134
 691.89;19763.954;  191.742;20754.713; 0.02145
 692.46;19712.070;  212.637;20700.494; 0.02147
 693.03;19647.519;  229.198;20611.941; 0.02105
 693.61;19672.635;  234.759;20426.722; 0.01653
 694.18;19622.417;  237.320;20424.503; 0.01761
 694.75;19554.866;  206.882;20414.950; 0.01889
 695.32;19439.649;  208.110;20458.064; 0.02241
 695.90;19384.764;  203.004;20312.512; 0.02051
 696.47;19369.547;  203.899;20210.626; 0.01865
 697.04;19386.329;  214.460;20060.073; 0.01500
 697.62;19341.445;  213.355;20039.187; 0.01556
 698.19;19250.561;  229.250;19951.301; 0.01571
 698.76;19060.677;  211.144;19960.082; 0.02024
 699.33;19012.459;  210.706;19883.196; 0.01966
 699.91;18968.908;  196.600;19795.977; 0.01872
 700.48;18945.690;  206.162;19674.091; 0.01656
 701.05;18782.806;  208.056;19645.538; 0.01972
 701.62;18757.922;  232.951;19536.652; 0.01788
 702.20;18645.371;  235.179;19463.767; 0.01889
 702.77;18638.487;  232.073;19314.881; 0.01567
 703.34;18487.603;  217.301;19303.995; 0.01898
 703.91;18459.385;  214.196;19161.775; 0.01641
 704.48;18330.834;  220.091;19054.223; 0.01701
 705.06;18358.616;  212.652;18964.004; 0.01425
 705.63;18288.066;  221.213;18940.118; 0.01540
 706.20;18338.181;  214.441;18934.565; 0.01406
 706.77;18231.297;  221.336;18864.679; 0.01501
 707.34;18239.079;  215.564;18821.793; 0.01382
 707.92;18120.195;  205.792;18710.907; 0.01409
 708.49;17980.311;  193.353;18575.022; 0.01428
 709.06;17822.093;  193.248;18466.136; 0.01558
 709.63;17764.876;  194.476;18431.916; 0.01618
 710.20;17767.658;  191.037;18446.697; 0.01646
 710.77;17732.774;  187.932;18338.145; 0.01473
 711.35;17714.223;  185.826;18305.592; 0.01441
 711.92;17753.005;  205.721;18271.706; 0.01265
 712.49;17807.788;  207.616;18372.487; 0.01372
 713.06;17851.904;  215.844;18405.934; 0.01343
 713.63;17876.686;  209.405;18498.382; 0.01502
 714.20;17920.135;  212.300;18556.829; 0.01534
 714.78;17832.251;  209.528;18487.277; 0.01585
 715.35;17777.033;  205.756;18407.724; 0.01532
 715.92;17665.149;  207.317;18351.838; 0.01676
 716.49;17687.598;  222.545;18343.285; 0.01601
 717.06;17718.047;  226.106;18273.400; 0.01357
 717.63;17710.830;  217.334;18198.847; 0.01195
 718.20;17723.945;  210.895;18175.294; 0.01105
 718.77;17657.394;  224.790;18170.075; 0.01259
 719.35;17687.510;  226.351;18153.189; 0.01143
 719.92;17619.293;  211.913;18038.303; 0.01033
 720.49;17584.408;  197.474;17879.084; 0.00730
 721.06;17448.857;  177.369;17774.532; 0.00811
 721.63;17395.640;  190.930;17799.979; 0.01009
 722.20;17380.756;  195.825;17861.426; 0.01198
 722.77;17418.205;  203.386;17825.540; 0.01016
 723.34;17402.320;  196.947;17821.321; 0.01045
 723.91;17306.436;  205.509;17813.102; 0.01268
 724.48;17261.219;  222.070;17777.883; 0.01297
 725.05;17160.334;  212.964;17617.997; 0.01157
 725.62;17067.117;  195.192;17490.778; 0.01077
 726.20;17047.899;  186.754;17461.892; 0.01053
 726.77;17074.015;  192.982;17446.339; 0.00947
 727.34;17056.797;  199.210;17412.787; 0.00908
 727.91;17031.580;  209.104;17361.567; 0.00844
 728.48;16989.695;  214.999;17354.015; 0.00933
 729.05;17042.811;  215.560;17353.795; 0.00795
 729.62;17055.927;  192.788;17320.910; 0.00677
 730.19;17078.043;  185.683;17297.024; 0.00559
 730.76;17117.492;  188.578;17324.138; 0.00527
 731.33;17035.941;  211.472;17306.252; 0.00692
 731.90;16952.057;  215.034;17274.033; 0.00828
 732.47;16822.172;  206.261;17242.147; 0.01084
 733.04;16824.621;  191.156;17245.594; 0.01085
 733.61;16757.070;  168.051;17256.042; 0.01287
 734.18;16733.520;  173.945;17191.156; 0.01184
 734.75;16732.969;  184.507;17077.270; 0.00894
 735.32;16726.751;  211.401;16955.384; 0.00597
 735.89;16693.533;  203.963;16851.831; 0.00415
 736.46;16537.316;  212.191;16734.945; 0.00523
 737.03;16409.432;  203.085;16674.393; 0.00704
 737.60;16227.881;  203.647;16580.840; 0.00946
 738.17;16077.330;  173.208;16558.621; 0.01295
 738.74;16071.446;  184.103;16523.735; 0.01219
 739.31;16055.228;  185.331;16430.849; 0.01016
 739.88;16092.677;  195.225;16300.630; 0.00564
 740.45;16066.793;  176.120;16234.411; 0.00456
 741.02;16018.909;  174.348;16293.858; 0.00747
 741.59;15930.691;  171.909;16337.305; 0.01106
 742.15;15925.140;  177.804;16325.753; 0.01091
 742.72;16057.256;  185.365;16376.867; 0.00866
 743.29;16098.372;  187.593;16351.648; 0.00686
 743.86;16020.487;  195.154;16298.095; 0.00755
 744.43;15911.936;  197.049;16220.543; 0.00845
 745.00;15890.719;  201.277;16240.323; 0.00957
 745.57;15874.168;  209.172;16261.771; 0.01062
 746.14;15858.617;  201.733;16198.552; 0.00933
 746.71;15845.733;  208.294;16179.666; 0.00918
 747.28;15958.848;  196.522;16170.446; 0.00579
 747.85;15919.631;  172.417;16124.227; 0.00561
 748.42;15936.080;  173.645;16103.675; 0.00459
 748.98;15865.196;  177.206;16075.455; 0.00578
 749.55;15877.645;  197.767;16011.569; 0.00369
 750.12;15850.761;  197.662;16015.683; 0.00455
 750.69;15747.876;  204.890;15955.131; 0.00575
 751.26;15669.992;  216.118;15910.245; 0.00670
 751.83;15614.774;  206.013;15821.026; 0.00577
 752.40;15646.890;  204.907;15769.807; 0.00344
 752.97;15616.339;  192.802;15780.587; 0.00460
 753.53;15604.122;  195.697;15773.035; 0.00473
 754.10;15490.571;  187.925;15706.815; 0.00609
 754.67;15459.020;  185.486;15666.263; 0.00585
 755.24;15341.802;  192.714;15616.044; 0.00779
 755.81;15430.585;  200.608;15583.491; 0.00434
 756.38;15437.034;  223.503;15510.272; 0.00209
 756.94;15487.149;  215.064;15482.386;-0.00014
 757.51;15272.265;  204.292;15502.833; 0.00660
 758.08;15163.048;  196.520;15545.281; 0.01095
 758.65;15041.497;  213.748;15443.728; 0.01162
 759.22;15056.612;  220.643;15351.176; 0.00854
 759.79;14948.395;  205.538;15180.623; 0.00679
 760.35;14727.511;  191.432;15130.404; 0.01187
 760.92;14534.960;  201.994;14987.518; 0.01350
 761.49;14394.409;  208.555;14849.965; 0.01373
 762.06;14414.858;  211.783;14641.079; 0.00686
 762.63;14346.974;  201.011;14500.527; 0.00469
 763.19;14274.423;  203.239;14469.641; 0.00598
 763.76;14163.538;  215.133;14423.422; 0.00802
 764.33;14031.321;  219.695;14294.202; 0.00819
 764.90;13953.770;  218.589;14107.650; 0.00484
 765.46;13790.552;  197.817;13914.097; 0.00393
 766.03;13702.335;  196.045;13749.878; 0.00153
 766.60;13528.784;  197.940;13624.992; 0.00312
 767.17;13402.566;  205.501;13465.773; 0.00208
 767.73;13242.349;  207.063;13413.220; 0.00566
 768.30;13075.464;  206.624;13205.001; 0.00435
 768.87;12871.580;  215.185;13045.782; 0.00594
 769.44;12673.696;  213.413;12836.229; 0.00563
 770.00;12544.145;  215.975;12686.677; 0.00499
 770.57;12383.927;  216.536;12525.791; 0.00503
 771.14;12180.377;  213.430;12350.238; 0.00612
 771.71;11849.826;  198.325;12122.686; 0.01005
 772.27;11645.608;  206.220;11935.800; 0.01088
 772.84;11544.390;  209.448;11715.914; 0.00652
 773.41;11460.839;  213.676;11595.695; 0.00518
 773.97;11332.622;  205.904;11440.809; 0.00420
 774.54;11116.071;  213.798;11314.923; 0.00785
 775.11;11014.187;  232.360;11227.370; 0.00850
 775.67;10896.969;  228.588;11074.818; 0.00718
 776.24;10761.085;  222.482;10902.265; 0.00578
 776.81;10630.867;  220.377;10665.712; 0.00145
 777.38;10479.983;  208.272;10484.160; 0.00018
 777.94;10409.765;  214.166;10350.941;-0.00251
 778.51;10266.548;  199.728;10214.721;-0.00224
 779.08;10169.997;  210.622;10137.835;-0.00140
 779.64; 9960.446;  201.517;10058.283; 0.00433
 780.21; 9815.895;  202.745; 9970.064; 0.00691
 780.78; 9687.344;  211.639; 9870.178; 0.00830
 781.34; 9688.460;  212.534; 9787.625; 0.00452
 781.91; 9646.242;  225.762; 9703.406; 0.00263
 782.47; 9576.358;  227.990; 9633.520; 0.00265
 783.04; 9482.141;  238.551; 9482.634; 0.00002
 783.61; 9395.256;  245.779; 9385.415;-0.00047
 784.17; 9310.372;  246.674; 9320.196; 0.00047
 784.74; 9197.821;  236.569; 9240.310; 0.00205
 785.31; 9093.604;  244.797; 9256.090; 0.00790
 785.87; 9077.386;  248.691; 9137.538; 0.00295
 786.44; 9060.835;  252.252; 9126.319; 0.00322
 787.00; 9020.284;  239.480; 9065.766; 0.00224
 787.57; 8966.733;  222.375; 9005.880; 0.00194
 788.14; 8941.182;  242.936; 8941.661; 0.00002
 788.70; 8913.965;  252.831; 8828.442;-0.00431
 789.27; 8919.080;  261.392; 8880.222;-0.00195
 789.83; 8844.196;  247.620; 8836.003;-0.00041
 790.40; 8826.645;  230.182; 8838.117; 0.00058
 790.96; 8768.428;  235.076; 8799.898; 0.00160
 791.53; 8777.543;  229.304; 8766.679;-0.00055
 792.10; 8758.993;  224.866; 8777.126; 0.00092
 792.66; 8713.775;  219.094; 8720.574; 0.00035
 793.23; 8680.557;  214.988; 8733.688; 0.00272
 793.79; 8684.006;  216.216; 8675.468;-0.00044
 794.36; 8701.789;  210.777; 8660.249;-0.00213
 794.92; 8603.238;  219.339; 8606.363; 0.00016
 795.49; 8555.354;  232.233; 8532.811;-0.00118
 796.05; 8474.136;  243.461; 8505.258; 0.00164
 796.62; 8487.918;  248.023; 8527.372; 0.00207
 797.19; 8443.034;  237.917; 8507.820; 0.00342
 797.75; 8474.483;  226.145; 8453.600;-0.00110
 798.32; 8479.932;  218.373; 8393.714;-0.00456
 798.88; 8470.715;  222.601; 8383.829;-0.00460
 799.45; 8440.497;  224.829; 8436.276;-0.00022
 800.01; 8567.946;  220.391; 8517.723;-0.00262
 800.58; 8711.729;  215.952; 8677.504;-0.00175
 801.14; 8943.844;  222.513; 8916.952;-0.00134
 801.71; 9217.960;  218.074; 9117.399;-0.00488
 802.27; 9484.076;  206.969; 9310.180;-0.00822
 802.84; 9756.525;  188.864; 9480.294;-0.01272
 803.40; 9883.307;  179.758; 9723.075;-0.00723
 803.96;10142.757;  198.986;10006.189;-0.00601
 804.53;10443.206;  210.548;10273.303;-0.00727
 805.09;10760.988;  208.442;10576.417;-0.00766
 805.66;11122.104;  200.670;10926.198;-0.00786
 806.22;11428.220;  172.898;11264.978;-0.00634
 806.79;11904.669;  185.793;11622.426;-0.01059
 807.35;12216.784;  182.354;11886.873;-0.01207
 807.92;12538.900;  214.582;12161.654;-0.01350
 808.48;12813.349;  221.810;12436.768;-0.01319
 809.05;13137.798;  217.705;12708.882;-0.01466
 809.61;13376.247;  213.933;13054.330;-0.01075
 810.17;13639.696;  218.827;13355.110;-0.00931
 810.74;13918.146;  231.055;13671.891;-0.00788
 811.30;14226.595;  226.617;13899.672;-0.01026
 811.87;14564.377;  214.511;14212.453;-0.01078
 812.43;14905.159;  214.406;14571.233;-0.00999
 812.99;15308.942;  216.967;14881.014;-0.01249
 813.56;15637.391;  221.862;15191.462;-0.01275
 814.12;16036.173;  221.090;15523.909;-0.01430
 814.69;16322.622;  216.318;15866.356;-0.01248
 815.25;16623.071;  210.213;16143.804;-0.01287
 815.81;16850.521;  200.774;16302.251;-0.01454
 816.38;17219.970;  196.335;16642.699;-0.01498
 816.94;17559.419;  193.897;16882.479;-0.01727
 817.51;17836.534;  192.791;17283.594;-0.01383
 818.07;18030.984;  201.019;17504.374;-0.01302
 818.63;18216.099;  202.247;17804.155;-0.01005
 819.20;18483.548;  201.808;18033.936;-0.01081
 819.76;18801.997;  209.370;18216.050;-0.01391
 820.32;18964.780;  216.598;18394.831;-0.01341
 820.89;19071.562;  218.159;18583.278;-0.01140
 821.45;19218.678;  193.387;18775.726;-0.01023
 822.01;19376.460;  176.615;18965.173;-0.00940
 822.58;19596.910;  180.843;19065.620;-0.01205
 823.14;19618.359;  194.404;19233.068;-0.00870
 823.70;19835.808;  202.299;19352.182;-0.01083
 824.27;19858.257;  193.194;19462.963;-0.00882
 824.83;19825.373;  215.421;19467.743;-0.00799
 825.39;19709.488;  215.649;19374.524;-0.00753
 825.95;19584.937;  221.211;19316.972;-0.00605
 826.52;19564.386;  191.105;19274.752;-0.00654
 827.08;19413.169;  189.000;19152.200;-0.00594
 827.64;19195.285;  175.895;18949.314;-0.00565
 828.21;18929.400;  175.123;18660.095;-0.00628
 828.77;18605.183;  181.351;18397.542;-0.00492
 829.33;18330.965;  183.579;18029.323;-0.00728
 829.89;18000.748;  181.807;17638.104;-0.00893
 830.46;17684.530;  185.701;17297.218;-0.00972
 831.02;17268.312;  190.596;16895.332;-0.00959
 831.58;16810.762;  201.157;16540.779;-0.00712
 832.15;16331.544;  185.052;16128.893;-0.00549
 832.71;15901.993;  188.280;15811.341;-0.00251
 833.27;15469.442;  178.841;15353.455;-0.00331
 833.83;14974.891;  169.736;14940.569;-0.00101
 834.39;14534.007;  164.297;14394.016;-0.00425
 834.96;14067.123;  162.192;13925.464;-0.00445
 835.52;13668.238;  187.086;13474.578;-0.00628
 836.08;13237.354;  188.981;13047.025;-0.00638
 836.64;12785.470;  194.876;12619.473;-0.00576
 837.21;12369.252;  198.770;12148.920;-0.00793
 837.77;11932.035;  198.332;11759.367;-0.00644
 838.33;11610.484;  206.893;11447.148;-0.00627
 838.89;11128.933;  203.121;11001.596;-0.00509
 839.45;10680.382;  205.349;10589.710;-0.00378
 840.02;10199.164;  209.910;10134.490;-0.00282
 840.58; 9864.613;  201.805; 9836.938;-0.00125
 841.14; 9521.729;  224.699; 9457.052;-0.00303
 841.70; 9135.512;  220.594; 9049.833;-0.00419
 842.26; 8763.294;  218.155; 8613.280;-0.00769
 842.82; 8394.743;  209.050; 8233.061;-0.00866
 843.39; 7966.859;  200.278; 7802.175;-0.00931
 843.95; 7510.975;  213.839; 7446.956;-0.00383
 844.51; 7154.757;  213.734; 7076.737;-0.00491
 845.07; 6820.873;  223.295; 6751.184;-0.00461
 845.63; 6590.655;  228.523; 6447.965;-0.00985
 846.19; 6318.104;  213.418; 6205.745;-0.00807
 846.75; 6131.553;  212.646; 6042.860;-0.00656
 847.32; 5894.669;  191.874; 5828.307;-0.00508
 847.88; 5697.785;  198.435; 5647.088;-0.00402
 848.44; 5527.234;  182.996; 5418.202;-0.00895
 849.00; 5398.350;  188.224; 5206.649;-0.01628
 849.56; 5248.465;  183.119; 5035.763;-0.01863
 850.12; 5146.915;  176.680; 4913.211;-0.02092
 850.68; 5052.697;  181.908; 4877.325;-0.01593
 851.24; 5037.479;  184.136; 4806.439;-0.02118
 851.80; 4959.595;  199.364; 4790.220;-0.01573
 852.37; 4876.711;  196.592; 4731.334;-0.01370
 852.93; 4781.827;  204.820; 4729.448;-0.00500
 853.49; 4747.609;  212.715; 4650.895;-0.00936
 854.05; 4734.725;  223.943; 4597.676;-0.01340
 854.61; 4683.840;  224.171; 4520.790;-0.01618
 855.17; 4684.956;  234.066; 4501.904;-0.01824
 855.73; 4656.739;  222.627; 4484.352;-0.01722
 856.29; 4695.854;  213.855; 4475.132;-0.02193
 856.85; 4682.303;  192.749; 4517.913;-0.01620
 857.41; 4752.419;  203.644; 4600.027;-0.01480
 857.97; 4821.535;  205.205; 4760.141;-0.00581
 858.53; 4977.984;  207.433; 4902.255;-0.00695
 859.09; 5174.766;  192.328; 5028.370;-0.01295
 859.65; 5420.882;  184.889; 5166.484;-0.02163
 860.21; 5675.331;  182.451; 5403.598;-0.02203
 860.77; 5952.780;  179.679; 5685.045;-0.02062
 861.33; 6241.563;  189.573; 6014.826;-0.01658
 861.89; 6600.679;  205.135; 6331.273;-0.01869
 862.45; 6958.461;  215.363; 6656.387;-0.01990
 863.01; 7279.243;  205.924; 6960.168;-0.02005
 863.57; 7631.359;  191.152; 7240.949;-0.02341
 864.13; 7922.475;  180.713; 7598.730;-0.01855
 864.69; 8298.591;  188.608; 7928.510;-0.02028
 865.25; 8605.040;  208.502; 8274.958;-0.01742
 865.81; 9008.822;  215.730; 8598.739;-0.02074
 866.37; 9354.271;  213.625; 8883.853;-0.02295
 866.93; 9657.720;  200.853; 9198.967;-0.02160
 867.49; 9913.836;  216.081; 9536.081;-0.01726
 868.05;10217.952;  210.642; 9849.195;-0.01631
 868.61;10566.068;  206.870;10116.309;-0.01928
 869.17;10936.183;  185.765;10306.090;-0.02623
 869.73;11263.299;  202.660;10652.537;-0.02467
 870.29;11612.748;  209.554;10985.985;-0.02455
 870.85;11963.531;  212.115;11316.099;-0.02461
 871.41;12330.313;  192.010;11700.213;-0.02315
 871.97;12695.429;  179.571;12032.994;-0.02362
 872.53;13011.544;  184.799;12414.108;-0.02071
 873.09;13361.660;  192.361;12748.222;-0.02072
 873.65;13612.443;  202.922;13125.336;-0.01607
 874.20;14048.558;  204.150;13530.783;-0.01655
 874.76;14516.892;  206.483;13844.450;-0.02090
 875.32;15034.225;  199.150;14344.450;-0.02068
 875.88;15474.558;  204.817;14722.117;-0.02195
 876.44;15785.892;  218.150;15059.450;-0.02075
 877.00;16137.225;  218.150;15358.117;-0.02179
 877.56;16388.892;  215.483;15696.450;-0.01900
 878.12;16703.558;  204.483;16104.450;-0.01606
 878.68;17014.225;  211.817;16344.450;-0.01767
 879.23;17311.225;  207.150;16637.783;-0.01745
 879.79;17647.558;  220.483;16875.783;-0.01967
 880.35;17823.558;  205.150;17127.117;-0.01752
 880.91;18020.225;  192.150;17367.783;-0.01619
 881.47;18302.225;  175.817;17611.783;-0.01687
 882.03;18601.892;  191.483;17929.783;-0.01615
 882.59;18915.225;  204.150;18199.450;-0.01694
 883.14;19103.892;  217.150;18423.117;-0.01594
 883.70;19344.225;  220.150;18492.117;-0.01980
 884.26;19489.892;  217.483;18606.117;-0.02039
 884.82;19483.225;  200.150;18627.783;-0.01971
 885.38;19447.892;  184.483;18693.783;-0.01734
 885.94;19374.225;  186.817;18692.783;-0.01570
 886.49;19314.225;  200.150;18759.783;-0.01278
 887.05;19268.558;  192.817;18819.450;-0.01035
 887.61;19212.558;  182.817;18766.450;-0.01030
 888.17;19128.225;  175.817;18655.450;-0.01097
 888.73;19013.892;  189.483;18492.450;-0.01220
 889.28;18846.558;  190.150;18251.117;-0.01409
 889.84;18729.225;  191.817;18020.450;-0.01693
 890.40;18507.225;  194.817;17792.450;-0.01729
 890.96;18423.892;  199.483;17628.450;-0.01938
 891.51;18287.225;  189.483;17470.117;-0.02006
 892.07;18128.225;  183.817;17244.117;-0.02194
 892.63;17854.892;  190.483;17036.783;-0.02059
 893.19;17672.558;  200.817;16880.117;-0.02016
 893.74;17465.558;  215.150;16772.783;-0.01780
 894.30;17297.225;  206.150;16671.450;-0.01620
 894.86;17059.225;  185.150;16510.450;-0.01436
 895.42;17064.558;  176.483;16397.450;-0.01750
 895.97;17035.225;  175.150;16362.450;-0.01769
 896.53;17003.558;  203.817;16299.450;-0.01859
 897.09;16880.225;  212.817;16258.117;-0.01652
 897.65;16758.558;  225.483;16079.783;-0.01821
 898.20;16727.892;  228.483;15994.117;-0.01976
 898.76;16663.892;  215.150;15888.117;-0.02098
 899.32;16598.892;  215.483;15824.450;-0.02103
 899.87;16515.892;  206.483;15765.117;-0.02047
 900.43;16388.892;  206.150;15631.783;-0.02081
 900.99;16298.225;  194.483;15508.450;-0.02184
 901.54;16054.892;  181.150;15319.450;-0.02060
 902.10;15843.225;  193.150;15133.117;-0.02017
 902.66;15550.892;  208.483;14918.117;-0.01829
 903.21;15330.892;  221.817;14754.117;-0.01690
 903.77;15179.558;  229.483;14588.450;-0.01752
 904.33;15098.558;  209.483;14443.783;-0.01953
 904.88;15068.558;  198.150;14329.783;-0.02213
 905.44;14972.892;  177.150;14293.450;-0.02042
 906.00;14940.225;  191.150;14324.117;-0.01853
 906.55;14829.225;  207.483;14294.117;-0.01619
 907.11;14710.225;  214.150;14239.117;-0.01435
 907.67;14479.225;  205.817;14016.117;-0.01432
 908.22;14367.558;  196.150;13855.783;-0.01597
 908.78;14248.558;  187.817;13715.783;-0.01678
 909.33;14138.558;  195.483;13616.783;-0.01656
 909.89;14010.892;  192.150;13488.783;-0.01673
 910.45;13887.892;  201.150;13406.783;-0.01554
 911.00;13841.892;  191.483;13362.117;-0.01554
 911.56;13785.892;  203.817;13272.117;-0.01675
 912.12;13684.892;  208.483;13101.117;-0.01923
 912.67;13560.558;  221.483;12951.117;-0.02031
 913.23;13344.225;  194.150;12807.450;-0.01810
 913.78;13188.558;  178.483;12651.783;-0.01830
 914.34;13095.225;  201.483;12642.117;-0.01554
 914.89;13055.558;  216.483;12543.117;-0.01769
 915.45;13024.225;  227.150;12558.117;-0.01611
 916.01;12897.225;  195.483;12386.117;-0.01784
 916.56;12787.892;  201.483;12282.450;-0.01780
 917.12;12632.558;  196.817;12063.117;-0.02036
 917.67;12576.225;  195.483;11981.117;-0.02139
 918.23;12436.558;  182.817;11944.450;-0.01780
 918.78;12319.558;  186.483;11927.117;-0.01428
 919.34;12210.225;  188.817;11843.783;-0.01344
 919.89;12099.225;  199.150;11694.117;-0.01504
 920.45;12040.558;  185.817;11531.783;-0.01905
 921.00;11851.892;  168.817;11330.783;-0.01982
 921.56;11716.225;  176.150;11296.783;-0.01608
 922.11;11542.225;  175.150;11154.450;-0.01507
 922.67;11384.225;  202.483;11048.450;-0.01324
 923.22;11256.225;  191.150;10815.450;-0.01765
 923.78;11014.558;  202.817;10632.117;-0.01564
 924.33;10841.225;  195.817;10497.117;-0.01427
 924.89;10629.558;  196.483;10361.117;-0.01132
 925.44;10524.558;  204.817;10248.117;-0.01179
 926.00;10394.558;  201.150;10018.783;-0.01631
 926.55;10261.558;  205.150; 9867.117;-0.01738
 927.11;10212.225;  188.150; 9720.450;-0.02185
 927.66;10117.225;  177.817; 9717.117;-0.01784
 928.22;10088.225;  174.483; 9670.783;-0.01868
 928.77;10026.558;  190.150; 9636.117;-0.01759
 929.33;10014.558;  204.150; 9587.783;-0.01932
 929.88; 9989.892;  205.150; 9516.450;-0.02154
 930.43; 9942.892;  182.483; 9493.450;-0.02047
 930.99; 9917.225;  174.817; 9470.117;-0.02040
 931.54; 9857.558;  167.150; 9456.783;-0.01834
 932.10; 9880.225;  190.150; 9473.117;-0.01864
 932.65; 9929.225;  197.150; 9480.117;-0.02052
 933.21; 9965.892;  198.483; 9496.450;-0.02139
 933.76; 9932.558;  187.483; 9472.117;-0.02102
 934.31; 9887.892;  183.150; 9454.117;-0.01986
 934.87; 9861.225;  190.150; 9433.783;-0.01963
 935.42; 9876.225;  199.483; 9431.450;-0.02043
 935.98; 9849.225;  195.483; 9388.450;-0.02124
 936.53; 9841.892;  193.817; 9335.450;-0.02342
 937.08; 9782.225;  191.150; 9347.783;-0.02013
 937.64; 9730.225;  197.817; 9356.783;-0.01736
 938.19; 9696.225;  196.483; 9425.117;-0.01257
 938.74; 9711.558;  199.817; 9340.117;-0.01730
 939.30; 9721.892;  187.150; 9339.783;-0.01776
 939.85; 9676.225;  186.483; 9209.783;-0.02189
 940.40; 9639.558;  173.817; 9251.783;-0.01817
 940.96; 9610.558;  187.150; 9238.450;-0.01750
 941.51; 9646.225;  189.483; 9244.783;-0.01884
 942.06; 9597.225;  197.150; 9160.450;-0.02066
 942.62; 9468.558;  184.817; 9036.783;-0.02068
 943.17; 9348.225;  195.150; 8966.450;-0.01850
 943.72; 9233.892;  180.483; 8903.117;-0.01616
 944.28; 9254.225;  199.483; 8795.117;-0.02260
 944.83; 9246.892;  184.150; 8766.783;-0.02364
 945.38; 9255.892;  194.483; 8735.117;-0.02571
 945.94; 9166.558;  186.483; 8804.450;-0.01788
 946.49; 9090.892;  205.150; 8772.783;-0.01583
 947.04; 8984.892;  208.817; 8738.117;-0.01239
 947.60; 8937.892;  215.150; 8638.117;-0.01519
 948.15; 8820.892;  203.483; 8519.117;-0.01548
 948.70; 8722.892;  212.817; 8413.783;-0.01607
 949.25; 8634.225;  206.150; 8325.117;-0.01623
 949.81; 8537.225;  208.817; 8271.117;-0.01410
 950.36; 8457.225;  198.483; 8157.117;-0.01608
 950.91; 8336.225;  207.150; 8037.783;-0.01624
 951.46; 8192.558;  203.817; 7873.117;-0.01772
 952.02; 8054.225;  207.150; 7734.117;-0.01809
 952.57; 7936.892;  207.150; 7606.450;-0.01897
 953.12; 7836.892;  218.483; 7526.117;-0.01809
 953.67; 7720.225;  218.150; 7443.783;-0.01631
 954.23; 7545.892;  215.817; 7359.450;-0.01119
 954.78; 7412.892;  208.150; 7234.450;-0.01089
 955.33; 7332.225;  218.150; 7119.783;-0.01317
 955.88; 7287.558;  217.150; 6980.117;-0.01931
 956.44; 7233.225;  230.483; 6838.450;-0.02520
 956.99; 7147.558;  228.817; 6737.117;-0.02656
 957.54; 7094.225;  223.817; 6672.783;-0.02749
 958.09; 7007.892;  222.150; 6636.783;-0.02443
 958.64; 6925.558;  206.817; 6607.450;-0.02106
 959.20; 6805.892;  203.483; 6532.450;-0.01837
 959.75; 6725.558;  199.817; 6496.450;-0.01552
 960.30; 6714.225;  218.150; 6441.783;-0.01861
 960.85; 6710.225;  225.150; 6424.450;-0.01957
 961.40; 6745.892;  228.817; 6381.117;-0.02502
 961.95; 6734.558;  231.817; 6360.783;-0.02571
 962.51; 6715.225;  239.483; 6360.117;-0.02449
 963.06; 6723.558;  242.817; 6380.117;-0.02365
 963.61; 6706.892;  234.150; 6314.783;-0.02714
 964.16; 6719.225;  235.150; 6258.450;-0.03201
 964.71; 6672.892;  222.483; 6212.117;-0.03219
 965.26; 6625.892;  213.150; 6253.117;-0.02601
 965.81; 6638.225;  210.817; 6289.117;-0.02425
 966.36; 6637.225;  208.483; 6323.783;-0.02171
 966.92; 6642.225;  216.150; 6305.117;-0.02340
 967.47; 6599.558;  218.483; 6338.117;-0.01817
 968.02; 6655.892;  232.483; 6354.117;-0.02090
 968.57; 6716.558;  234.817; 6375.450;-0.02348
 969.12; 6761.558;  219.817; 6368.783;-0.02689
 969.67; 6799.558;  204.483; 6420.783;-0.02569
 970.22; 6841.558;  194.150; 6469.783;-0.02499
 970.77; 6989.558;  199.817; 6539.117;-0.02981
 971.32; 7042.558;  197.483; 6593.117;-0.02949
 971.87; 7161.225;  198.817; 6693.117;-0.03023
 972.42; 7209.558;  215.150; 6793.117;-0.02666
 972.98; 7292.558;  220.817; 6908.783;-0.02423
 973.53; 7366.558;  231.483; 6996.117;-0.02315
 974.08; 7365.225;  215.483; 7040.450;-0.02019
 974.63; 7455.225;  223.483; 7078.450;-0.02324
 975.18; 7497.892;  218.483; 7103.117;-0.02422
 975.73; 7625.892;  224.817; 7157.450;-0.02840
 976.28; 7618.892;  221.483; 7219.117;-0.02413
 976.83; 7658.225;  221.483; 7315.450;-0.02049
 977.38; 7659.225;  219.483; 7373.783;-0.01699
 977.93; 7753.225;  222.150; 7387.450;-0.02162
 978.48; 7781.892;  228.483; 7365.783;-0.02461
 979.03; 7782.558;  234.817; 7358.117;-0.02514
 979.58; 7702.892;  221.483; 7329.117;-0.02226
 980.13; 7679.558;  207.150; 7367.783;-0.01851
 980.68; 7659.225;  186.483; 7310.450;-0.02076
 981.23; 7712.225;  185.817; 7278.117;-0.02580
 981.78; 7670.558;  207.150; 7207.450;-0.02782
 982.33; 7661.225;  219.150; 7257.117;-0.02425
 982.88; 7600.225;  232.483; 7211.783;-0.02352
 983.43; 7561.892;  218.150; 7145.783;-0.02533
 983.98; 7478.558;  215.150; 6984.117;-0.03062
 984.53; 7351.558;  203.817; 6873.450;-0.03007
 985.08; 7255.558;  209.817; 6835.783;-0.02668
 985.63; 7182.892;  211.150; 6787.117;-0.02538
 986.18; 7164.558;  218.817; 6756.783;-0.02628
 986.73; 7076.225;  218.483; 6610.450;-0.03055
 987.27; 6998.225;  227.483; 6521.117;-0.03173
 987.82; 6900.892;  238.483; 6431.783;-0.03171
 988.37; 6834.558;  243.150; 6400.783;-0.02956
 988.92; 6729.892;  234.150; 6351.117;-0.02609
 989.47; 6613.558;  214.483; 6285.117;-0.02288
 990.02; 6539.892;  208.483; 6199.117;-0.02403
 990.57; 6501.225;  208.150; 6083.117;-0.02986
 991.12; 6434.225;  215.150; 6044.450;-0.02811
 991.67; 6358.558;  213.817; 5969.117;-0.02844
 992.22; 6206.558;  200.483; 5915.450;-0.02158
 992.77; 6132.892;  200.150; 5802.450;-0.02489
 993.31; 6000.892;  204.817; 5735.783;-0.02033
 993.86; 5945.892;  230.483; 5683.783;-0.02039
 994.41; 5860.225;  235.150; 5580.117;-0.02218
 994.96; 5817.558;  226.483; 5473.117;-0.02761
 995.51; 5665.558;  218.817; 5377.783;-0.02357
 996.06; 5543.558;  208.483; 5293.783;-0.02082
 996.61; 5403.558;  222.483; 5201.783;-0.01725
 997.15; 5353.892;  236.150; 5083.450;-0.02358
 997.70; 5195.225;  241.150; 4965.117;-0.02066
 998.25; 5093.892;  247.483; 4873.450;-0.02022
 998.80; 4971.558;  248.483; 4740.117;-0.02182
 999.35; 4898.225;  249.483; 4623.450;-0.02646
 999.90; 4721.225;  236.150; 4455.117;-0.02656
1000.44; 4547.892;  224.483; 4340.450;-0.02135
1000.99; 4394.558;  232.483; 4190.783;-0.02180
1001.54; 4287.558;  237.150; 4067.450;-0.02427
1002.09; 4160.892;  231.817; 3939.117;-0.02523
1002.64; 4045.558;  238.483; 3855.450;-0.02225
1003.18; 3942.225;  240.483; 3766.783;-0.02109
1003.73; 3852.892;  238.483; 3661.450;-0.02363
1004.28; 3779.558;  226.817; 3584.450;-0.02453
1004.83; 3689.558;  209.483; 3488.117;-0.02590
1005.38; 3643.892;  210.150; 3420.783;-0.02918
1005.92; 3552.892;  219.150; 3321.783;-0.03120
1006.47; 3484.225;  236.817; 3231.783;-0.03514
1007.02; 3377.558;  235.483; 3140.117;-0.03413
1007.57; 3305.892;  222.817; 3087.450;-0.03192
1008.11; 3231.558;  211.817; 3028.450;-0.03024
1008.66; 3170.225;  205.150; 2973.450;-0.02982
1009.21; 3094.558;  192.483; 2907.783;-0.02889
1009.75; 2993.892;  177.817; 2862.117;-0.02081
1010.30; 2897.892;  170.150; 2793.117;-0.01701
1010.85; 2807.225;  176.817; 2712.783;-0.01588
1011.40; 2729.892;  204.150; 2628.450;-0.01780
1011.94; 2681.558;  221.817; 2545.783;-0.02466
1012.49; 2591.892;  216.483; 2464.450;-0.02395
1013.04; 2511.892;  194.150; 2362.117;-0.02901
1013.58; 2403.892;  184.150; 2325.117;-0.01569
1014.13; 2335.892;  188.483; 2268.117;-0.01393
1014.68; 2295.225;  196.483; 2233.450;-0.01298
1015.23; 2248.225;  203.150; 2181.450;-0.01442
1015.77; 2196.225;  199.817; 2113.117;-0.01847
1016.32; 2151.558;  204.817; 2072.450;-0.01802
1016.87; 2119.558;  209.483; 2012.783;-0.02498
1017.41; 2106.558;  206.817; 1977.450;-0.03057
1017.96; 2052.892;  194.817; 1953.450;-0.02389
1018.50; 1992.892;  186.483; 1926.450;-0.01627
1019.05; 1919.225;  188.483; 1903.450;-0.00398
1019.60; 1855.225;  182.817; 1815.783;-0.01037
1020.14; 1823.558;  196.150; 1752.783;-0.01931
1020.69; 1803.558;  196.150; 1698.117;-0.02947
1021.24; 1776.225;  209.483; 1650.450;-0.03634
1021.78; 1721.225;  188.483; 1620.450;-0.02954
1022.33; 1669.225;  190.150; 1592.450;-0.02315
1022.87; 1603.558;  182.817; 1587.783;-0.00485
1023.42; 1561.558;  198.150; 1567.117; 0.00177
1023.97; 1517.225;  200.150; 1516.117;-0.00037
1024.51; 1497.558;  212.150; 1465.117;-0.01110
1025.06; 1438.892;  200.483; 1401.117;-0.01345
1025.60; 1401.892;  198.817; 1340.783;-0.02264
1026.15; 1382.892;  181.150; 1307.783;-0.02803
1026.70; 1390.225;  185.483; 1284.783;-0.03978
1027.24; 1377.225;  195.483; 1279.783;-0.03737
1027.79; 1349.225;  200.483; 1270.450;-0.03085
1028.33; 1307.892;  197.483; 1252.450;-0.02224
1028.88; 1275.558;  188.817; 1215.450;-0.02471
1029.42; 1238.558;  208.150; 1198.450;-0.01724
1029.97; 1213.558;  197.817; 1156.450;-0.02513
1030.51; 1173.558;  190.150; 1127.117;-0.02101
1031.06; 1149.558;  182.817; 1088.783;-0.02820
1031.61; 1144.558;  192.483; 1063.117;-0.03884
1032.15; 1143.558;  210.150; 1050.450;-0.04564
1032.70; 1136.558;  202.817; 1024.117;-0.05572
1033.24; 1085.225;  206.483; 1018.117;-0.03450
1033.79; 1057.225;  200.817; 1020.450;-0.01906
1034.33; 1031.892;  199.817; 1016.450;-0.00814
1034.88; 1026.225;  201.817; 1008.783;-0.00929
1035.42; 1019.892;  202.817;  979.450;-0.02205
1035.97; 1002.225;  204.483;  950.450;-0.02914
1036.51; 1007.558;  206.483;  931.450;-0.04336
1037.06; 1012.225;  200.817;  944.117;-0.03808
1037.60; 1026.892;  207.150;  948.783;-0.04349
1038.14; 1010.892;  204.150;  928.783;-0.04662
1038.69;  996.892;  222.150;  927.783;-0.04058
1039.23;  986.892;  234.483;  935.783;-0.03055
1039.78;  986.558;  235.150;  948.783;-0.02240
1040.32;  964.558;  224.483;  915.783;-0.02961
1040.87;  947.225;  208.483;  887.117;-0.03686
1041.41;  939.558;  198.150;  864.117;-0.04660
1041.96;  929.225;  200.817;  882.783;-0.02861
1042.50;  911.558;  197.817;  893.117;-0.01137
1043.04;  912.558;  213.817;  899.117;-0.00844
1043.59;  913.225;  217.150;  867.450;-0.02954
1044.13;  898.892;  212.483;  869.450;-0.01904
1044.68;  868.558;  205.817;  862.117;-0.00424
1045.22;  866.892;  199.150;  873.783; 0.00446
1045.76;  874.558;  201.817;  869.450;-0.00331
1046.31;  866.225;  193.483;  861.783;-0.00288
1046.85;  863.892;  200.483;  842.117;-0.01449
1047.40;  843.558;  202.483;  813.783;-0.02065
1047.94;  855.225;  215.150;  808.783;-0.03271
1048.48;  832.892;  211.150;  810.117;-0.01621
1049.03;  844.558;  214.483;  793.450;-0.03674
1049.57;  854.225;  229.150;  787.117;-0.04932
1050.11;  839.558;  222.817;  774.117;-0.04872
1050.66;  827.558;  218.483;  779.117;-0.03599
1051.20;  804.225;  206.483;  794.450;-0.00716
1051.74;  796.558;  200.817;  788.117;-0.00620
1052.29;  789.892;  200.150;  780.783;-0.00676
1052.83;  790.558;  199.150;  748.117;-0.03234
1053.37;  778.558;  224.817;  744.783;-0.02733
1053.92;  783.558;  234.150;  739.783;-0.03606
1054.46;  770.558;  236.483;  734.117;-0.03069
1055.00;  799.892;  231.483;  739.117;-0.04911
1055.55;  785.558;  230.817;  738.117;-0.03883
1056.09;  757.558;  223.817;  747.783;-0.00803
1056.63;  741.558;  215.817;  711.783;-0.02532
1057.17;  735.892;  216.483;  709.117;-0.02299
1057.72;  753.225;  225.150;  697.450;-0.04848
1058.26;  723.892;  223.483;  705.783;-0.01601
1058.80;  721.225;  229.817;  700.450;-0.01876
1059.35;  719.225;  230.483;  686.450;-0.03015
1059.89;  730.558;  230.150;  672.450;-0.05361
1060.43;  715.225;  227.817;  654.783;-0.05750
1060.97;  682.558;  223.817;  667.117;-0.01487
1061.52;  655.892;  231.150;  682.450; 0.02634
1062.06;  646.892;  231.483;  671.450; 0.02494
1062.60;  651.892;  236.483;  658.450; 0.00680
1063.14;  672.892;  232.483;  640.783;-0.03288
1063.69;  655.892;  216.483;  640.117;-0.01588
1064.23;  646.558;  208.817;  619.783;-0.02741
1064.77;  621.225;  200.483;  598.450;-0.02417
1065.31;  611.558;  201.817;  577.450;-0.03775
1065.85;  611.225;  206.483;  567.117;-0.05011
1066.40;  625.558;  205.150;  579.450;-0.05045
1066.94;  640.225;  217.817;  579.117;-0.06786
1067.48;  626.892;  209.150;  587.783;-0.04269
1068.02;  613.225;  233.817;  562.450;-0.06240
1068.56;  589.225;  216.817;  564.783;-0.02948
1069.10;  594.558;  212.817;  549.783;-0.05418
1069.65;  579.892;  195.817;  566.450;-0.01547
1070.19;  591.892;  208.817;  566.783;-0.02944
1070.73;  593.558;  223.817;  582.783;-0.01284
1071.27;  604.892;  215.817;  567.117;-0.04436
1071.81;  600.225;  207.150;  562.117;-0.04429
1072.35;  596.892;  201.817;  549.117;-0.05597
1072.90;  575.558;  197.150;  546.783;-0.03435
1073.44;  568.225;  202.817;  540.117;-0.03476
1073.98;  557.892;  206.150;  531.450;-0.03394
1074.52;  558.892;  224.483;  538.783;-0.02693
1075.06;  548.558;  218.483;  542.450;-0.00811
1075.60;  537.225;  207.483;  531.450;-0.00767
1076.14;  552.892;  204.817;  514.117;-0.05129
1076.68;  556.558;  207.150;  504.450;-0.07014
1077.22;  567.225;  225.817;  504.783;-0.08772
1077.76;  549.558;  214.817;  498.117;-0.07246
1078.31;  533.225;  229.817;  499.783;-0.05072
1078.85;  530.225;  226.483;  517.117;-0.01916
1079.39;  530.558;  243.817;  525.450;-0.00781
1079.93;  545.892;  237.817;  507.783;-0.05735
1080.47;  529.892;  227.483;  476.450;-0.08445
1081.01;  524.558;  216.150;  474.783;-0.07644
1081.55;  522.892;  208.483;  488.783;-0.04987
1082.09;  528.225;  205.817;  488.783;-0.05667
1082.63;  529.225;  210.150;  496.450;-0.04707
1083.17;  515.225;  221.150;  500.783;-0.02187
1083.71;  499.892;  228.817;  501.450; 0.00249
1084.25;  492.892;  224.483;  471.117;-0.03674
1084.79;  494.892;  214.483;  446.450;-0.08237
1085.33;  509.558;  202.817;  450.783;-0.09238
1085.87;  511.892;  199.483;  468.450;-0.06502
1086.41;  506.225;  214.483;  471.450;-0.05512
1086.95;  493.892;  222.150;  467.117;-0.04505
1087.49;  476.892;  225.817;  454.783;-0.04003
1088.03;  469.558;  216.817;  454.117;-0.02738
1088.57;  469.558;  219.817;  450.783;-0.03394
1089.11;  480.892;  222.150;  448.117;-0.05882
1089.65;  493.558;  233.150;  458.783;-0.06225
1090.19;  488.892;  238.483;  468.117;-0.03761
1090.73;  471.892;  240.483;  471.783;-0.00020
1091.27;  462.558;  238.817;  466.117; 0.00685
1091.81;  462.225;  238.483;  458.117;-0.00805
1092.35;  480.558;  247.483;  461.450;-0.03715
1092.89;  492.892;  232.150;  457.450;-0.06345
1093.43;  480.558;  223.817;  445.783;-0.06321
1093.97;  456.558;  210.150;  441.117;-0.02811
1094.51;  436.225;  208.483;  440.450; 0.00798
1095.04;  456.558;  218.483;  442.783;-0.02588
1095.58;  469.225;  238.817;  436.783;-0.06591
1096.12;  473.892;  242.817;  428.783;-0.09432
1096.66;  459.225;  239.817;  430.450;-0.06105
1097.20;  463.892;  235.817;  449.450;-0.02841
1097.74;  461.892;  246.817;  456.783;-0.01044
1098.28;  451.558;  235.817;  457.117; 0.01105
1098.82;  447.225;  230.483;  453.117; 0.01165
1099.36;  447.225;  228.150;  446.450;-0.00154
1099.89;  448.225;  230.150;  447.450;-0.00155

