
Integration time [ms]:   0.300
Averaging Nr. [scans]: 1
Smoothing Nr. [pixels]: 1
Data measured with spectrometer [name]: 1906252U1
Wave   ;Sample   ;Dark     ;Reference;Absorbance
[nm]   ;[counts] ;[counts] ;[counts] ;[A.U]

 161.30;  290.881;  271.207;  271.637; 0.00000
 161.90;  274.573;  265.524;  261.712; 0.00000
 162.51;  271.276;  259.038;  260.433;-0.94338
 163.11;  279.688;  265.693;  251.834; 0.00000
 163.71;  279.318;  276.696;  266.803; 0.00000
 164.31;  285.323;  294.270;  273.488; 0.00000
 164.91;  283.587;  288.393;  287.410; 0.00000
 165.52;  284.454;  277.299;  279.261;-0.56193
 166.12;  280.935;  271.979;  273.718;-0.71198
 166.72;  278.644;  272.971;  259.755; 0.00000
 167.32;  286.257;  271.656;  271.040; 0.00000
 167.93;  266.084;  261.266;  267.518; 0.11312
 168.53;  261.521;  254.112;  260.296;-0.07852
 169.13;  250.143;  264.427;  257.261; 0.00000
 169.73;  265.568;  271.677;  266.351; 0.00000
 170.33;  288.018;  291.614;  320.561; 5.00000
 170.94;  313.355;  317.756;  347.746; 5.00000
 171.54;  335.398;  335.278;  387.239; 2.63797
 172.14;  334.687;  338.926;  375.538; 5.00000
 172.74;  338.677;  324.358;  373.181; 0.53272
 173.34;  328.056;  319.589;  355.569; 0.62831
 173.95;  324.415;  309.596;  343.923; 0.36482
 174.55;  323.720;  318.289;  355.228; 0.83259
 175.15;  331.646;  320.689;  367.155; 0.62746
 175.75;  342.363;  322.370;  380.195; 0.46124
 176.35;  346.516;  332.415;  382.036; 0.54641
 176.95;  352.029;  327.740;  392.907; 0.42862
 177.56;  353.474;  327.608;  398.355; 0.43699
 178.16;  342.429;  316.738;  399.298; 0.50698
 178.76;  344.635;  316.306;  398.487; 0.46253
 179.36;  347.508;  310.874;  401.343; 0.39262
 179.96;  343.322;  304.800;  395.813; 0.37339
 180.56;  347.137;  308.938;  392.969; 0.34238
 181.17;  350.929;  318.009;  403.448; 0.41419
 181.77;  378.320;  318.897;  417.181; 0.21852
 182.37;  357.254;  306.653;  404.111; 0.28466
 182.97;  369.932;  319.309;  413.789; 0.27099
 183.57;  375.761;  323.525;  427.944; 0.30081
 184.17;  426.928;  336.736;  473.104; 0.17955
 184.78;  428.084;  316.624;  484.587; 0.17809
 185.38;  442.324;  315.012;  504.833; 0.17348
 185.98;  447.445;  315.783;  504.638; 0.15667
 186.58;  466.250;  316.598;  510.449; 0.11239
 187.18;  457.806;  313.002;  491.678; 0.09129
 187.78;  470.527;  324.256;  526.070; 0.13979
 188.38;  487.285;  331.840;  541.159; 0.12923
 188.98;  502.658;  337.804;  574.199; 0.15654
 189.59;  497.006;  332.575;  567.529; 0.15500
 190.19;  484.878;  326.870;  580.708; 0.20588
 190.79;  491.765;  326.914;  573.939; 0.17565
 191.39;  486.431;  317.159;  564.285; 0.16433
 191.99;  491.856;  322.498;  545.363; 0.11923
 192.59;  487.764;  317.307;  539.929; 0.11595
 193.19;  466.196;  313.765;  525.712; 0.14315
 193.79;  457.758;  325.164;  530.280; 0.18947
 194.39;  446.493;  328.250;  517.658; 0.20462
 195.00;  452.329;  327.216;  511.139; 0.16734
 195.60;  438.578;  305.566;  480.732; 0.11956
 196.20;  426.306;  304.088;  469.473; 0.13136
 196.80;  418.829;  305.278;  453.989; 0.11715
 197.40;  407.349;  313.686;  455.186; 0.17919
 198.00;  395.943;  320.693;  452.457; 0.24329
 198.60;  384.773;  317.270;  442.943; 0.26992
 199.20;  372.022;  312.435;  427.513; 0.28584
 199.80;  358.613;  303.957;  416.753; 0.31465
 200.40;  345.058;  299.492;  396.868; 0.32981
 201.00;  335.276;  293.841;  371.434; 0.27246
 201.60;  332.240;  292.845;  340.403; 0.08178
 202.21;  328.741;  298.995;  352.240; 0.25284
 202.81;  325.065;  303.760;  367.883; 0.47854
 203.41;  327.450;  301.801;  377.921; 0.47243
 204.01;  334.473;  296.447;  373.611; 0.30733
 204.61;  334.336;  287.965;  374.799; 0.27245
 205.21;  341.881;  280.528;  391.328; 0.25671
 205.81;  354.127;  276.000;  394.567; 0.18116
 206.41;  355.553;  281.190;  389.667; 0.16398
 207.01;  339.387;  291.585;  373.516; 0.23401
 207.61;  301.750;  290.832;  349.221; 0.72821
 208.21;  296.957;  294.007;  340.088; 1.19370
 208.81;  304.584;  285.376;  350.048; 0.52725
 209.41;  306.134;  292.971;  355.294; 0.67529
 210.01;  308.988;  286.985;  361.835; 0.53170
 210.61;  287.150;  290.534;  351.990; 5.00000
 211.21;  303.729;  293.399;  356.219; 0.78400
 211.81;  297.458;  300.157;  352.258; 5.00000
 212.41;  318.379;  301.896;  344.513; 0.41256
 213.01;  314.136;  296.332;  351.625; 0.49214
 213.61;  317.846;  285.263;  357.339; 0.34479
 214.21;  303.933;  282.939;  368.411; 0.60974
 214.81;  295.589;  278.704;  361.387; 0.68992
 215.41;  297.851;  282.466;  362.645; 0.71697
 216.01;  304.392;  278.247;  362.189; 0.50658
 216.61;  310.320;  287.920;  357.792; 0.49407
 217.21;  313.241;  290.599;  357.391; 0.46981
 217.81;  321.656;  297.221;  367.800; 0.46066
 218.41;  340.274;  301.628;  379.081; 0.30194
 219.01;  351.352;  307.801;  388.505; 0.26789
 219.61;  334.087;  301.739;  384.906; 0.41010
 220.21;  324.040;  297.568;  378.507; 0.48538
 220.81;  313.919;  283.737;  372.713; 0.46952
 221.41;  326.563;  284.091;  376.024; 0.33537
 222.01;  323.594;  280.426;  372.049; 0.32685
 222.61;  330.649;  298.953;  367.451; 0.33467
 223.21;  334.941;  301.813;  357.103; 0.22246
 223.81;  344.854;  301.952;  360.676; 0.13633
 224.41;  326.499;  281.875;  343.618; 0.14102
 225.01;  310.478;  269.317;  340.250; 0.23637
 225.61;  301.243;  274.108;  341.033; 0.39205
 226.21;  300.442;  273.112;  349.918; 0.44875
 226.81;  300.027;  286.490;  349.175; 0.66565
 227.41;  302.135;  284.059;  344.282; 0.52265
 228.01;  316.441;  302.172;  351.241; 0.53642
 228.61;  329.362;  306.727;  360.474; 0.37557
 229.21;  326.254;  303.825;  362.700; 0.41913
 229.81;  331.999;  308.998;  372.791; 0.44303
 230.41;  324.270;  299.055;  383.396; 0.52439
 231.01;  325.142;  300.808;  405.942; 0.63553
 231.61;  307.293;  287.307;  401.095; 0.75537
 232.21;  326.035;  300.328;  383.489; 0.50986
 232.81;  316.489;  296.307;  370.928; 0.56789
 233.41;  325.558;  302.578;  372.995; 0.48634
 234.00;  328.465;  298.240;  379.918; 0.43173
 234.60;  341.828;  290.487;  363.623; 0.15366
 235.20;  341.464;  295.152;  359.264; 0.14124
 235.80;  321.635;  295.330;  365.432; 0.42569
 236.40;  313.255;  302.765;  379.044; 0.86163
 237.00;  321.023;  303.584;  384.824; 0.66825
 237.60;  322.167;  294.000;  377.651; 0.47273
 238.20;  317.067;  295.121;  389.214; 0.63220
 238.80;  307.874;  274.112;  389.668; 0.53437
 239.40;  322.631;  279.177;  403.402; 0.45618
 240.00;  334.868;  284.599;  402.640; 0.37073
 240.59;  332.518;  298.133;  401.312; 0.47723
 241.19;  331.276;  297.989;  399.745; 0.48529
 241.79;  325.584;  288.710;  384.715; 0.41558
 242.39;  332.452;  292.222;  383.909; 0.35777
 242.99;  325.324;  286.642;  375.121; 0.35933
 243.59;  326.281;  289.230;  388.763; 0.42917
 244.19;  324.089;  286.160;  385.560; 0.41842
 244.79;  334.534;  287.511;  384.652; 0.31510
 245.39;  339.439;  287.293;  395.554; 0.31725
 245.98;  326.003;  273.053;  391.453; 0.34948
 246.58;  303.161;  274.487;  389.290; 0.60245
 247.18;  307.889;  285.342;  384.364; 0.64263
 247.78;  329.631;  295.696;  398.758; 0.48244
 248.38;  348.374;  288.656;  421.162; 0.34613
 248.98;  339.842;  277.356;  419.988; 0.35843
 249.58;  316.859;  265.673;  430.671; 0.50833
 250.17;  320.383;  275.285;  426.842; 0.52641
 250.77;  315.840;  283.143;  431.967; 0.65817
 251.37;  320.944;  286.929;  425.089; 0.60871
 251.97;  318.675;  270.293;  429.805; 0.51811
 252.57;  324.433;  265.298;  436.882; 0.46263
 253.17;  337.709;  272.929;  449.172; 0.43467
 253.77;  333.491;  284.186;  466.282; 0.56741
 254.36;  335.338;  295.474;  468.774; 0.63822
 254.96;  325.461;  295.333;  480.567; 0.78875
 255.56;  324.529;  288.604;  484.301; 0.73619
 256.16;  327.417;  278.462;  506.509; 0.66823
 256.76;  325.015;  277.524;  496.109; 0.66301
 257.36;  332.849;  276.735;  508.603; 0.61617
 257.95;  338.298;  264.992;  503.713; 0.51275
 258.55;  349.328;  264.239;  518.084; 0.47470
 259.15;  360.037;  260.564;  510.454; 0.40005
 259.75;  348.911;  269.345;  523.998; 0.50522
 260.35;  340.857;  267.461;  538.318; 0.56707
 260.94;  317.602;  268.819;  539.764; 0.74462
 261.54;  327.284;  275.530;  547.771; 0.72101
 262.14;  327.300;  279.723;  553.422; 0.75988
 262.74;  335.734;  296.084;  592.169; 0.87318
 263.34;  326.495;  285.302;  604.600; 0.88937
 263.93;  321.437;  271.414;  619.201; 0.84214
 264.53;  328.685;  269.158;  628.783; 0.78114
 265.13;  319.451;  270.950;  628.566; 0.86767
 265.73;  333.025;  275.426;  648.466; 0.81134
 266.33;  345.303;  278.566;  678.397; 0.77751
 266.92;  342.258;  275.029;  689.673; 0.79011
 267.52;  346.307;  279.954;  705.726; 0.80732
 268.12;  337.171;  273.264;  717.281; 0.84185
 268.72;  359.717;  281.951;  749.175; 0.77874
 269.31;  359.042;  293.596;  782.505; 0.87334
 269.91;  362.568;  296.813;  783.686; 0.86949
 270.51;  361.986;  298.884;  823.747; 0.92000
 271.11;  360.603;  296.018;  844.685; 0.92918
 271.70;  344.924;  281.274;  877.686; 0.97175
 272.30;  352.138;  270.568;  887.924; 0.87901
 272.90;  361.299;  264.784;  909.412; 0.82471
 273.50;  373.428;  274.785;  916.521; 0.81329
 274.09;  366.099;  285.359;  947.539; 0.91389
 274.69;  355.896;  293.425;  961.690; 1.02926
 275.29;  365.257;  297.126; 1011.041; 1.02030
 275.89;  369.746;  301.162; 1057.168; 1.04230
 276.48;  396.968;  306.441; 1108.365; 0.94735
 277.08;  412.614;  303.217; 1149.330; 0.88842
 277.68;  425.535;  300.562; 1156.928; 0.83584
 278.28;  421.330;  297.934; 1188.748; 0.85848
 278.87;  411.125;  305.120; 1219.213; 0.93566
 279.47;  421.613;  316.402; 1279.019; 0.96139
 280.07;  429.801;  311.564; 1306.537; 0.92506
 280.66;  440.064;  305.599; 1329.806; 0.88178
 281.26;  436.536;  299.502; 1356.605; 0.88729
 281.86;  442.065;  299.353; 1408.460; 0.89051
 282.46;  449.599;  289.111; 1464.667; 0.86480
 283.05;  471.119;  270.001; 1525.842; 0.79548
 283.65;  483.193;  269.267; 1577.248; 0.78634
 284.25;  483.603;  276.537; 1628.707; 0.81492
 284.84;  498.027;  297.639; 1660.819; 0.83268
 285.44;  530.583;  304.585; 1722.349; 0.79750
 286.04;  553.537;  306.626; 1767.304; 0.77201
 286.63;  558.764;  299.604; 1827.551; 0.77054
 287.23;  548.468;  285.934; 1878.582; 0.78294
 287.83;  573.873;  285.987; 1956.635; 0.76367
 288.42;  598.714;  282.947; 2012.456; 0.73856
 289.02;  634.270;  281.018; 2081.351; 0.70727
 289.62;  649.926;  274.153; 2105.373; 0.68782
 290.21;  677.100;  278.965; 2173.882; 0.67756
 290.81;  701.405;  296.139; 2171.832; 0.66542
 291.41;  712.850;  301.675; 2217.279; 0.66828
 292.00;  730.827;  287.695; 2273.257; 0.65135
 292.60;  773.825;  266.816; 2355.570; 0.61487
 293.20;  801.533;  269.053; 2441.953; 0.61074
 293.79;  847.097;  275.331; 2498.541; 0.58976
 294.39;  848.671;  284.326; 2544.463; 0.60259
 294.99;  879.983;  280.435; 2588.095; 0.58535
 295.58;  889.536;  284.687; 2619.961; 0.58669
 296.18;  914.481;  271.100; 2672.236; 0.57195
 296.78;  946.769;  267.474; 2741.524; 0.56135
 297.37;  980.816;  256.039; 2819.912; 0.54869
 297.97; 1017.682;  255.858; 2927.442; 0.54491
 298.57; 1057.460;  262.727; 2989.557; 0.53544
 299.16; 1095.334;  278.359; 3083.789; 0.53579
 299.76; 1121.910;  281.775; 3176.366; 0.53724
 300.35; 1156.592;  281.214; 3269.362; 0.53321
 300.95; 1160.350;  278.404; 3324.462; 0.53830
 301.55; 1179.379;  287.229; 3346.846; 0.53523
 302.14; 1209.221;  278.314; 3431.366; 0.52983
 302.74; 1262.052;  277.164; 3537.862; 0.51992
 303.33; 1313.441;  277.506; 3665.575; 0.51462
 303.93; 1359.141;  284.053; 3763.621; 0.51008
 304.53; 1392.256;  290.889; 3809.743; 0.50447
 305.12; 1465.598;  285.666; 3889.067; 0.48486
 305.72; 1525.618;  304.345; 3962.749; 0.47648
 306.31; 1570.354;  292.556; 4062.826; 0.46991
 306.91; 1579.431;  290.122; 4183.574; 0.47998
 307.51; 1598.932;  280.000; 4278.734; 0.48170
 308.10; 1656.584;  295.710; 4394.048; 0.47879
 308.70; 1697.926;  291.190; 4468.751; 0.47271
 309.29; 1732.641;  287.634; 4547.826; 0.46956
 309.89; 1758.177;  264.902; 4638.675; 0.46672
 310.48; 1815.290;  273.673; 4739.754; 0.46195
 311.08; 1873.649;  268.620; 4876.118; 0.45798
 311.68; 1940.225;  273.221; 4959.384; 0.44888
 312.27; 1984.461;  278.703; 5074.278; 0.44892
 312.87; 2020.710;  271.869; 5225.848; 0.45220
 313.46; 2059.206;  276.691; 5385.013; 0.45725
 314.06; 2122.419;  276.193; 5529.885; 0.45418
 314.65; 2211.768;  282.238; 5632.559; 0.44293
 315.25; 2291.140;  283.262; 5774.255; 0.43691
 315.85; 2361.428;  277.637; 5914.876; 0.43221
 316.44; 2383.490;  287.913; 6071.938; 0.44093
 317.04; 2437.546;  295.255; 6216.984; 0.44157
 317.63; 2518.890;  310.823; 6400.341; 0.44057
 318.23; 2599.821;  298.737; 6546.296; 0.43378
 318.82; 2676.421;  293.221; 6674.883; 0.42777
 319.42; 2708.759;  273.276; 6781.545; 0.42688
 320.01; 2777.838;  280.055; 6929.646; 0.42524
 320.61; 2860.867;  290.511; 7164.652; 0.42723
 321.20; 2962.190;  285.758; 7272.939; 0.41675
 321.80; 3049.281;  292.860; 7497.718; 0.41728
 322.39; 3096.730;  275.154; 7636.540; 0.41647
 322.99; 3157.404;  275.755; 7857.556; 0.42013
 323.58; 3220.073;  286.597; 7977.531; 0.41860
 324.18; 3295.569;  287.901; 8124.673; 0.41591
 324.77; 3352.895;  292.485; 8318.013; 0.41869
 325.37; 3416.380;  278.984; 8442.167; 0.41529
 325.96; 3495.182;  276.253; 8588.958; 0.41203
 326.56; 3564.650;  298.768; 8771.095; 0.41400
 327.15; 3648.323;  300.036; 8947.778; 0.41208
 327.75; 3688.078;  300.925; 9129.536; 0.41606
 328.34; 3773.398;  272.723; 9291.838; 0.41101
 328.94; 3834.812;  266.072; 9447.905; 0.41041
 329.53; 3949.451;  277.765; 9658.876; 0.40739
 330.13; 4031.019;  293.098; 9872.460; 0.40871
 330.72; 4126.095;  297.428;10112.576; 0.40885
 331.32; 4211.915;  296.807;10347.750; 0.40946
 331.91; 4309.909;  286.021;10578.045; 0.40785
 332.51; 4431.996;  290.846;10832.428; 0.40578
 333.10; 4501.591;  280.941;11112.686; 0.40932
 333.69; 4576.101;  268.720;11343.870; 0.41014
 334.29; 4588.536;  259.020;11372.294; 0.40940
 334.88; 4590.477;  263.526;11404.218; 0.41073
 335.48; 4631.091;  274.151;11347.513; 0.40510
 336.07; 4701.267;  277.361;11521.065; 0.40510
 336.67; 4785.630;  271.793;11561.792; 0.39815
 337.26; 4850.910;  270.478;11724.744; 0.39806
 337.86; 4890.271;  274.661;11795.073; 0.39724
 338.45; 4936.104;  285.081;11996.201; 0.40105
 339.04; 4937.619;  280.248;12122.714; 0.40530
 339.64; 4997.726;  279.247;12324.855; 0.40703
 340.23; 5053.744;  276.541;12444.594; 0.40605
 340.83; 5122.149;  283.446;12579.002; 0.40502
 341.42; 5132.292;  284.034;12728.085; 0.40938
 342.02; 5184.604;  280.810;12860.717; 0.40915
 342.61; 5227.004;  285.029;12994.842; 0.41024
 343.20; 5294.500;  280.703;13173.363; 0.41018
 343.80; 5378.010;  275.024;13326.514; 0.40784
 344.39; 5474.623;  277.525;13574.777; 0.40800
 344.99; 5532.763;  284.701;13698.586; 0.40756
 345.58; 5595.509;  281.629;13941.331; 0.41003
 346.17; 5619.798;  272.425;14086.941; 0.41220
 346.77; 5728.703;  263.601;14425.499; 0.41352
 347.36; 5819.952;  267.766;14640.403; 0.41307
 347.96; 5926.294;  271.456;14918.073; 0.41332
 348.55; 5947.287;  272.039;15018.413; 0.41470
 349.14; 6010.464;  269.152;15148.264; 0.41357
 349.74; 6076.183;  282.193;15379.635; 0.41593
 350.33; 6208.171;  292.264;15619.281; 0.41344
 350.92; 6297.298;  292.029;15990.758; 0.41733
 351.52; 6368.579;  276.988;16197.719; 0.41723
 352.11; 6444.560;  277.642;16449.038; 0.41868
 352.70; 6500.990;  293.221;16652.467; 0.42083
 353.30; 6616.222;  299.069;16923.354; 0.42022
 353.89; 6655.020;  289.556;17199.826; 0.42432
 354.49; 6781.976;  295.537;17471.125; 0.42291
 355.08; 6928.431;  303.789;17648.240; 0.41800
 355.67; 7065.405;  306.509;17850.877; 0.41426
 356.27; 7107.618;  292.678;18013.082; 0.41501
 356.86; 7106.584;  288.376;18230.048; 0.42019
 357.45; 7197.866;  297.756;18507.331; 0.42144
 358.05; 7327.827;  297.214;18684.613; 0.41753
 358.64; 7393.175;  292.504;18894.298; 0.41826
 359.23; 7418.366;  289.300;19081.825; 0.42095
 359.83; 7480.596;  289.121;19433.380; 0.42522
 360.42; 7590.139;  293.174;19722.600; 0.42532
 361.01; 7701.704;  287.355;19981.487; 0.42426
 361.61; 7763.438;  287.502;20183.522; 0.42510
 362.20; 7881.637;  294.987;20496.718; 0.42534
 362.79; 7963.527;  302.910;20634.303; 0.42390
 363.38; 8051.722;  301.613;20815.514; 0.42274
 363.98; 8045.606;  289.171;20943.715; 0.42535
 364.57; 8148.042;  277.744;21176.149; 0.42412
 365.16; 8183.701;  288.573;21351.502; 0.42616
 365.76; 8293.474;  293.720;21537.287; 0.42415
 366.35; 8333.751;  294.920;21731.542; 0.42596
 366.94; 8393.688;  286.459;21913.791; 0.42613
 367.53; 8404.025;  286.426;22067.466; 0.42865
 368.13; 8430.035;  291.994;22246.489; 0.43100
 368.72; 8508.167;  285.482;22413.295; 0.42992
 369.31; 8607.891;  292.281;22597.374; 0.42851
 369.91; 8633.382;  283.382;22746.877; 0.42979
 370.50; 8716.928;  291.699;22820.059; 0.42715
 371.09; 8828.474;  278.017;22946.909; 0.42344
 371.68; 8941.562;  286.967;23106.324; 0.42106
 372.28; 9001.478;  294.984;23340.584; 0.42274
 372.87; 9011.724;  297.367;23443.502; 0.42424
 373.46; 9054.496;  297.723;23614.255; 0.42532
 374.05; 9176.745;  287.889;23758.158; 0.42167
 374.65; 9236.409;  290.440;23950.173; 0.42238
 375.24; 9350.583;  272.918;24146.349; 0.41994
 375.83; 9361.928;  275.848;24331.370; 0.42284
 376.42; 9419.430;  273.516;24515.563; 0.42334
 377.02; 9464.701;  293.907;24527.502; 0.42201
 377.61; 9524.874;  288.112;24762.668; 0.42320
 378.20; 9621.006;  297.747;24944.118; 0.42219
 378.79; 9651.444;  297.015;25086.217; 0.42325
 379.38; 9734.015;  282.191;25204.109; 0.42107
 379.98; 9780.389;  267.243;25344.469; 0.42096
 380.57; 9933.972;  272.112;25606.751; 0.41865
 381.16;10009.328;  291.609;25727.129; 0.41788
 381.75;10083.684;  289.589;25767.151; 0.41519
 382.35;10086.461;  283.703;25937.612; 0.41781
 382.94;10200.547;  271.231;26182.039; 0.41656
 383.53;10367.606;  279.541;26558.760; 0.41580
 384.12;10539.490;  269.432;26865.627; 0.41325
 384.71;10631.555;  284.069;27028.687; 0.41240
 385.31;10707.399;  287.699;27353.893; 0.41457
 385.90;10852.934;  299.731;27598.110; 0.41275
 386.49;10999.165;  283.306;27919.987; 0.41146
 387.08;11192.793;  296.763;28085.602; 0.40660
 387.67;11301.782;  302.047;28384.267; 0.40705
 388.26;11400.927;  312.463;28670.094; 0.40780
 388.86;11504.590;  297.866;29041.131; 0.40906
 389.45;11658.064;  285.685;29324.329; 0.40713
 390.04;11783.213;  279.860;29566.863; 0.40585
 390.63;11916.965;  284.795;29878.048; 0.40553
 391.22;12019.267;  294.422;30097.179; 0.40515
 391.81;12156.344;  303.408;30368.117; 0.40423
 392.41;12309.295;  324.211;30517.642; 0.40127
 393.00;12474.978;  349.022;30747.606; 0.39914
 393.59;12625.939;  379.676;31111.212; 0.39958
 394.18;12727.217;  399.780;31505.223; 0.40196
 394.77;12794.440;  433.703;31930.599; 0.40622
 395.36;12901.982;  473.557;32244.356; 0.40761
 395.95;13063.393;  524.323;32561.017; 0.40738
 396.55;13289.569;  566.236;32856.406; 0.40447
 397.14;13519.399;  594.577;33298.717; 0.40318
 397.73;13685.261;  601.786;33627.642; 0.40213
 398.32;13896.772;  612.294;34204.404; 0.40289
 398.91;14081.628;  621.039;34614.988; 0.40234
 399.50;14321.154;  632.059;35200.379; 0.40230
 400.09;14541.711;  605.452;35675.306; 0.40079
 400.68;14852.565;  582.293;36366.134; 0.39925
 401.27;15175.122;  548.561;37014.694; 0.39675
 401.87;15433.043;  525.771;37604.957; 0.39573
 402.46;15636.924;  501.053;38119.893; 0.39540
 403.05;15933.103;  484.389;38675.942; 0.39307
 403.64;16253.982;  490.521;39240.769; 0.39062
 404.23;16565.339;  484.797;39841.080; 0.38871
 404.82;16775.967;  502.588;40438.695; 0.38989
 405.41;17063.784;  491.629;41140.816; 0.38967
 406.00;17400.686;  497.890;41752.976; 0.38752
 406.59;17690.953;  479.966;42383.807; 0.38645
 407.18;17947.275;  482.149;42943.385; 0.38582
 407.77;18130.266;  466.520;43500.038; 0.38672
 408.37;18373.205;  484.641;43973.019; 0.38580
 408.96;18569.032;  491.806;44465.898; 0.38607
 409.55;18845.760;  504.476;44970.283; 0.38460
 410.14;19055.320;  481.626;45459.452; 0.38410
 410.73;19396.345;  490.299;45905.805; 0.38060
 411.32;19598.630;  492.855;46441.730; 0.38111
 411.91;19862.839;  505.687;47060.216; 0.38112
 412.50;19953.287;  480.732;47624.639; 0.38400
 413.09;20211.430;  484.505;48110.411; 0.38278
 413.68;20404.302;  482.467;48573.257; 0.38273
 414.27;20581.629;  487.472;48936.919; 0.38222
 414.86;20768.363;  462.470;49236.309; 0.38056
 415.45;20825.832;  452.555;49687.411; 0.38321
 416.04;21048.521;  462.743;50083.734; 0.38210
 416.63;21130.398;  468.551;50542.275; 0.38444
 417.22;21283.816;  461.867;50754.683; 0.38298
 417.81;21360.626;  462.159;51068.477; 0.38409
 418.40;21557.502;  476.694;51393.675; 0.38298
 418.99;21828.709;  477.832;51737.830; 0.38036
 419.58;21961.977;  462.218;51969.382; 0.37943
 420.17;22019.334;  452.952;52248.392; 0.38051
 420.76;22031.794;  458.593;52499.836; 0.38243
 421.35;22133.726;  472.988;53005.769; 0.38476
 421.94;22155.129;  474.287;53203.501; 0.38598
 422.53;22265.948;  469.601;53402.299; 0.38534
 423.12;22264.497;  471.552;53493.823; 0.38614
 423.71;22397.231;  463.366;53670.857; 0.38486
 424.30;22328.906;  471.573;53819.883; 0.38752
 424.89;22444.367;  477.611;53888.037; 0.38586
 425.48;22426.061;  477.854;53974.356; 0.38693
 426.07;22370.445;  465.438;53940.695; 0.38761
 426.66;22229.950;  460.097;54040.507; 0.39115
 427.25;22160.903;  453.014;53995.096; 0.39208
 427.84;22133.544;  450.549;53912.043; 0.39192
 428.43;22086.614;  452.848;53711.442; 0.39126
 429.02;21909.397;  457.772;53797.552; 0.39559
 429.61;21840.650;  448.720;53826.107; 0.39711
 430.20;21692.337;  425.820;53758.443; 0.39930
 430.79;21648.138;  437.001;53531.580; 0.39849
 431.38;21531.786;  442.471;53315.543; 0.39917
 431.97;21380.369;  451.391;53001.434; 0.39983
 432.55;21164.278;  445.807;52690.011; 0.40168
 433.14;21036.013;  441.412;52704.411; 0.40444
 433.73;20873.359;  432.971;52655.054; 0.40737
 434.32;20688.936;  424.624;52606.263; 0.41079
 434.91;20401.079;  423.161;52233.737; 0.41387
 435.50;20276.884;  418.064;51971.869; 0.41431
 436.09;20166.676;  418.432;51687.970; 0.41433
 436.68;20030.366;  422.559;51624.303; 0.41686
 437.27;19838.542;  439.214;51661.122; 0.42167
 437.86;19658.340;  433.576;51508.561; 0.42435
 438.45;19608.434;  436.794;51330.326; 0.42400
 439.04;19490.411;  419.148;51043.637; 0.42398
 439.62;19368.108;  412.025;51000.963; 0.42631
 440.21;19134.879;  413.441;50885.373; 0.43071
 440.80;18999.709;  430.263;51024.538; 0.43530
 441.39;18896.317;  449.560;51081.161; 0.43850
 441.98;18824.802;  447.874;51020.625; 0.43964
 442.57;18697.107;  436.530;50797.219; 0.44058
 443.16;18464.161;  425.660;50702.578; 0.44517
 443.75;18329.186;  431.481;50788.909; 0.44927
 444.33;18152.662;  435.018;50969.383; 0.45518
 444.92;18125.292;  440.355;50892.685; 0.45528
 445.51;18046.968;  417.614;50850.986; 0.45648
 446.10;17986.564;  410.612;51056.876; 0.45963
 446.69;17843.918;  404.712;51275.545; 0.46494
 447.28;17681.111;  420.929;51457.726; 0.47084
 447.87;17580.776;  412.657;51329.383; 0.47214
 448.45;17469.156;  413.036;51412.748; 0.47569
 449.04;17324.400;  390.874;51445.980; 0.47929
 449.63;17259.390;  386.972;51646.289; 0.48260
 450.22;17076.241;  381.501;51835.467; 0.48884
 450.81;16936.993;  386.090;52100.884; 0.49479
 451.40;16737.255;  391.666;52058.120; 0.49981
 451.98;16703.231;  398.229;52052.065; 0.50078
 452.57;16568.640;  403.856;52211.469; 0.50582
 453.16;16462.193;  401.626;52273.023; 0.50917
 453.75;16334.554;  391.994;52359.708; 0.51318
 454.34;16256.882;  388.814;52215.013; 0.51403
 454.93;16179.253;  395.232;52494.699; 0.51862
 455.51;16123.787;  391.805;52615.216; 0.52108
 456.10;16047.699;  402.670;52907.445; 0.52582
 456.69;15906.308;  396.116;53041.712; 0.53074
 457.28;15758.134;  403.304;53288.203; 0.53709
 457.87;15604.941;  395.902;53216.666; 0.54070
 458.45;15537.674;  396.108;53304.691; 0.54336
 459.04;15441.727;  388.965;53401.373; 0.54676
 459.63;15349.852;  395.666;53676.141; 0.55181
 460.22;15224.520;  396.420;53639.128; 0.55517
 460.80;15157.859;  400.600;53692.823; 0.55766
 461.39;15183.256;  392.483;53895.895; 0.55839
 461.98;15129.844;  393.792;54364.115; 0.56377
 462.57;15120.714;  398.874;54782.941; 0.56751
 463.16;15087.403;  397.668;55197.607; 0.57177
 463.74;15083.674;  387.726;55673.212; 0.57541
 464.33;15013.895;  376.102;56213.777; 0.58145
 464.92;14977.172;  370.427;56547.398; 0.58500
 465.51;14954.160;  357.831;56911.710; 0.58822
 466.09;15039.711;  358.204;57352.888; 0.58906
 466.68;15064.294;  361.518;57898.436; 0.59255
 467.27;15097.498;  372.331;58292.638; 0.59477
 467.86;14986.928;  368.243;58560.733; 0.59996
 468.44;14947.124;  363.094;58919.922; 0.60370
 469.03;14957.357;  361.882;59322.152; 0.60634
 469.62;15078.935;  367.807;59788.037; 0.60629
 470.20;15201.591;  365.300;60231.337; 0.60586
 470.79;15242.115;  374.762;60677.863; 0.60811
 471.38;15213.423;  358.816;61146.166; 0.61195
 471.97;15131.663;  359.020;61564.389; 0.61733
 472.55;15085.294;  350.111;61933.679; 0.62111
 473.14;15134.558;  362.234;62406.602; 0.62325
 473.73;15155.856;  355.473;62971.535; 0.62641
 474.31;15157.468;  347.428;63489.444; 0.62976
 474.90;15085.957;  350.797;63899.238; 0.63475
 475.49;15115.958;  352.737;64160.914; 0.63570
 476.07;15101.348;  357.870;64473.326; 0.63836
 476.66;15208.885;  347.892;64752.829; 0.63687
 477.25;15226.089;  340.581;65000.332; 0.63787
 477.84;15337.624;  352.761;65155.193; 0.63594
 478.42;15312.386;  344.733;65155.945; 0.63650
 479.01;15248.110;  344.681;65156.001; 0.63836
 479.60;15185.294;  330.210;65156.511; 0.63988
 480.18;15044.397;  334.265;65158.257; 0.64412
 480.77;14997.637;  342.135;65159.480; 0.64569
 481.35;14931.862;  347.900;65159.373; 0.64778
 481.94;14912.008;  344.738;65159.188; 0.64829
 482.53;14899.753;  335.059;65159.923; 0.64844
 483.11;14873.216;  332.000;65160.709; 0.64917
 483.70;14911.573;  318.067;65161.719; 0.64771
 484.29;14874.534;  316.585;65163.324; 0.64879
 484.87;14865.768;  306.461;65164.542; 0.64882
 485.46;14752.495;  315.710;65164.272; 0.65243
 486.05;14694.124;  319.958;65162.920; 0.65428
 486.63;14598.786;  321.237;65162.258; 0.65720
 487.22;14502.113;  317.302;65162.909; 0.66006
 487.81;14425.925;  323.288;65164.368; 0.66255
 488.39;14291.033;  331.856;65164.474; 0.66693
 488.98;14196.282;  337.207;65163.733; 0.67002
 489.56;14046.024;  317.228;65164.794; 0.67426
 490.15;13955.623;  310.772;65166.371; 0.67698
 490.74;13821.387;  302.771;65167.454; 0.68108
 491.32;13612.401;  305.937;65168.774; 0.68793
 491.91;13374.373;  316.111;64974.057; 0.69474
 492.49;13176.291;  317.823;64712.314; 0.69966
 493.08;13008.099;  332.939;64167.133; 0.70210
 493.67;12904.848;  325.500;63724.219; 0.70242
 494.25;12803.152;  343.920;63105.848; 0.70220
 494.84;12690.066;  335.724;62474.087; 0.70154
 495.42;12558.405;  338.386;61959.759; 0.70266
 496.01;12335.968;  319.873;61399.648; 0.70613
 496.59;12222.107;  310.443;60754.114; 0.70538
 497.18;12019.476;  311.106;60078.479; 0.70797
 497.77;11907.651;  311.733;59331.632; 0.70669
 498.35;11819.493;  326.966;58841.796; 0.70685
 498.94;11746.573;  324.499;58030.218; 0.70347
 499.52;11627.883;  324.914;57567.186; 0.70452
 500.11;11392.983;  311.275;56906.600; 0.70817
 500.69;11248.625;  304.601;56449.246; 0.71013
 501.28;11169.089;  315.149;55764.708; 0.70831
 501.86;11066.195;  317.653;55155.772; 0.70773
 502.45;10959.151;  338.264;54632.693; 0.70859
 503.03;10819.775;  328.939;54106.656; 0.70979
 503.62;10771.521;  339.385;53665.090; 0.70856
 504.20;10695.740;  326.215;53123.968; 0.70686
 504.79;10650.266;  326.766;52666.148; 0.70500
 505.37;10704.305;  326.582;52358.543; 0.70017
 505.96;10727.518;  332.269;51859.105; 0.69520
 506.55;10832.267;  327.706;51491.158; 0.68758
 507.13;10812.880;  315.837;51254.709; 0.68598
 507.72;10876.248;  312.954;51138.387; 0.68228
 508.30;10964.142;  319.265;50944.634; 0.67723
 508.89;11127.326;  316.460;50626.145; 0.66779
 509.47;11255.912;  308.593;50383.056; 0.66031
 510.05;11356.392;  311.037;50305.214; 0.65574
 510.64;11460.710;  312.992;50205.541; 0.65085
 511.22;11617.646;  326.961;50242.492; 0.64552
 511.81;11752.001;  323.186;50282.527; 0.64062
 512.39;11904.417;  329.747;50266.280; 0.63491
 512.98;12063.926;  310.647;50213.110; 0.62796
 513.56;12238.125;  306.947;50200.284; 0.62136
 514.15;12425.698;  297.484;50225.841; 0.61455
 514.73;12641.861;  293.306;50310.339; 0.60750
 515.32;12899.232;  298.909;50412.714; 0.59958
 515.90;13117.663;  306.909;50529.464; 0.59332
 516.49;13254.481;  321.223;50576.262; 0.58947
 517.07;13448.035;  323.415;50501.804; 0.58243
 517.66;13655.527;  325.663;50468.951; 0.57539
 518.24;13907.017;  330.491;50581.443; 0.56836
 518.82;14106.687;  322.791;50433.118; 0.56056
 519.41;14350.494;  321.449;50483.238; 0.55334
 519.99;14612.892;  304.901;50520.942; 0.54526
 520.58;14942.139;  313.039;50964.514; 0.53937
 521.16;15292.463;  316.114;51139.212; 0.53066
 521.75;15629.391;  315.579;51354.849; 0.52282
 522.33;15862.731;  314.722;51552.832; 0.51792
 522.91;16123.713;  303.280;51724.449; 0.51192
 523.50;16448.359;  304.661;51708.091; 0.50299
 524.08;16817.799;  292.957;51816.521; 0.49387
 524.67;17121.781;  296.699;52029.160; 0.48781
 525.25;17410.262;  294.898;52244.306; 0.48219
 525.83;17718.969;  300.195;52281.679; 0.47483
 526.42;18022.617;  299.604;52255.985; 0.46710
 527.00;18381.956;  297.414;52315.968; 0.45885
 527.59;18706.727;  293.742;52194.390; 0.45005
 528.17;18969.136;  296.702;52169.461; 0.44374
 528.75;19163.127;  314.407;52237.781; 0.44008
 529.34;19435.883;  317.963;52410.206; 0.43533
 529.92;19758.371;  322.096;52599.701; 0.42970
 530.50;20043.099;  308.099;52577.086; 0.42301
 531.09;20251.603;  310.277;52580.588; 0.41850
 531.67;20389.741;  319.699;52493.409; 0.41490
 532.25;20546.962;  331.224;52474.618; 0.41151
 532.84;20671.779;  319.265;52286.406; 0.40711
 533.42;20876.833;  303.579;52069.121; 0.40074
 534.00;21051.987;  296.379;51800.283; 0.39470
 534.59;21258.390;  306.923;51692.027; 0.38962
 535.17;21491.001;  307.396;51484.292; 0.38307
 535.75;21659.750;  311.833;51399.345; 0.37896
 536.34;21869.047;  327.170;51106.314; 0.37240
 536.92;22028.072;  323.362;50970.357; 0.36800
 537.50;22191.090;  320.767;50555.361; 0.36115
 538.09;22275.009;  304.234;50224.272; 0.35643
 538.67;22416.751;  307.957;49849.711; 0.35041
 539.25;22539.268;  292.004;49517.578; 0.34491
 539.84;22668.147;  298.382;49195.084; 0.33962
 540.42;22727.512;  287.620;48747.408; 0.33436
 541.00;22719.379;  304.712;48328.615; 0.33093
 541.59;22805.899;  293.453;47996.146; 0.32612
 542.17;22865.077;  303.713;47681.974; 0.32221
 542.75;22999.870;  301.687;47449.085; 0.31747
 543.33;23016.541;  321.928;47035.436; 0.31352
 543.92;23079.227;  322.791;46647.473; 0.30871
 544.50;23106.095;  319.637;46212.001; 0.30406
 545.08;23260.842;  303.653;45900.067; 0.29801
 545.67;23259.972;  304.594;45544.519; 0.29464
 546.25;23449.385;  306.855;45243.598; 0.28819
 546.83;23400.348;  305.919;44881.223; 0.28559
 547.41;23501.422;  307.185;44485.963; 0.27983
 548.00;23458.872;  304.048;44073.416; 0.27653
 548.58;23525.146;  293.554;43651.340; 0.27099
 549.16;23597.779;  273.252;43462.973; 0.26757
 549.74;23673.813;  276.221;43125.006; 0.26277
 550.33;23648.181;  287.338;42789.017; 0.25992
 550.91;23721.301;  287.502;42328.145; 0.25383
 551.49;23873.199;  275.114;42084.067; 0.24839
 552.07;24096.477;  281.527;41894.675; 0.24238
 552.66;24201.735;  296.715;41696.915; 0.23851
 553.24;24222.625;  301.874;41407.799; 0.23513
 553.82;24287.900;  287.046;41262.389; 0.23230
 554.40;24404.497;  287.502;41018.645; 0.22760
 554.98;24491.363;  286.839;40927.197; 0.22506
 555.57;24574.926;  295.511;40724.442; 0.22145
 556.15;24635.680;  295.794;40729.857; 0.22043
 556.73;24814.693;  289.872;40584.856; 0.21565
 557.31;25068.285;  280.087;40487.094; 0.21006
 557.89;25297.766;  267.680;40402.230; 0.20506
 558.48;25511.017;  270.725;40389.487; 0.20125
 559.06;25660.506;  269.279;40492.969; 0.19980
 559.64;25772.892;  288.172;40421.363; 0.19722
 560.22;25853.680;  308.276;40298.501; 0.19464
 560.80;26085.624;  311.749;40155.433; 0.18918
 561.39;26277.021;  300.174;40123.139; 0.18555
 561.97;26553.694;  304.256;40118.465; 0.18092
 562.55;26715.491;  305.864;40159.584; 0.17871
 563.13;26977.390;  307.652;40244.814; 0.17536
 563.71;27109.225;  295.320;40343.674; 0.17422
 564.29;27210.702;  296.315;40286.513; 0.17197
 564.88;27272.237;  280.495;40218.374; 0.17015
 565.46;27517.324;  277.260;40267.767; 0.16675
 566.04;27766.133;  269.464;40338.574; 0.16353
 566.62;28116.668;  292.162;40520.457; 0.16010
 567.20;28373.887;  292.265;40647.678; 0.15748
 567.78;28562.292;  300.170;40851.754; 0.15680
 568.36;28806.959;  300.837;41002.754; 0.15468
 568.94;28836.072;  296.460;41004.189; 0.15423
 569.53;29110.746;  295.816;41099.192; 0.15108
 570.11;29224.050;  283.902;41113.488; 0.14947
 570.69;29562.485;  278.869;41248.245; 0.14583
 571.27;29659.502;  279.854;41227.262; 0.14418
 571.85;29844.131;  279.584;41295.220; 0.14218
 572.43;29971.151;  299.078;41479.213; 0.14234
 573.01;30204.815;  288.199;41566.526; 0.13981
 573.59;30375.279;  284.931;41522.011; 0.13686
 574.17;30579.215;  270.419;41423.650; 0.13284
 574.76;30708.970;  278.826;41529.098; 0.13212
 575.34;30912.868;  274.920;41725.997; 0.13128
 575.92;31104.730;  271.771;41808.186; 0.12941
 576.50;31320.042;  265.398;41828.507; 0.12658
 577.08;31467.586;  261.206;41866.048; 0.12490
 577.66;31639.587;  250.776;41875.013; 0.12257
 578.24;31764.417;  252.747;41879.155; 0.12090
 578.82;31879.503;  257.942;41897.583; 0.11952
 579.40;31986.797;  266.978;41903.210; 0.11814
 579.98;32083.215;  273.567;41841.961; 0.11620
 580.56;32198.902;  281.852;41853.319; 0.11477
 581.14;32319.082;  291.659;41917.834; 0.11384
 581.72;32538.497;  280.280;42082.244; 0.11256
 582.30;32755.404;  273.151;42074.467; 0.10954
 582.88;32964.556;  274.650;42152.288; 0.10757
 583.46;33265.406;  282.363;42189.821; 0.10400
 584.04;33410.024;  282.956;42171.457; 0.10191
 584.62;33588.041;  265.125;42197.830; 0.09981
 585.21;33571.652;  267.265;42241.428; 0.10048
 585.79;33713.913;  273.754;42392.009; 0.10020
 586.37;33892.212;  277.118;42415.309; 0.09814
 586.95;34070.062;  275.522;42455.787; 0.09626
 587.53;34338.788;  269.979;42469.819; 0.09295
 588.11;34362.881;  278.442;42585.262; 0.09385
 588.69;34416.798;  282.733;42557.865; 0.09290
 589.27;34504.739;  283.424;42506.477; 0.09125
 589.85;34560.874;  276.026;42443.602; 0.08988
 590.43;34779.215;  271.715;42599.939; 0.08872
 591.01;34788.453;  278.076;42722.853; 0.08987
 591.59;35042.542;  288.299;42936.945; 0.08890
 592.16;35151.254;  287.924;42891.657; 0.08708
 592.74;35259.324;  291.617;42886.045; 0.08569
 593.32;35242.252;  293.193;42739.948; 0.08441
 593.90;35303.279;  297.895;42708.966; 0.08334
 594.48;35440.676;  288.777;42603.037; 0.08054
 595.06;35615.097;  285.245;42684.475; 0.07922
 595.64;35668.189;  272.769;42709.242; 0.07879
 596.22;35671.423;  276.890;42757.472; 0.07925
 596.80;35742.581;  268.138;42505.619; 0.07578
 597.38;35828.195;  264.245;42457.558; 0.07423
 597.96;35883.210;  262.869;42299.911; 0.07193
 598.54;35761.369;  268.057;42320.734; 0.07365
 599.12;35718.719;  272.769;42174.074; 0.07266
 599.70;35586.928;  272.156;42133.628; 0.07386
 600.28;35610.171;  269.178;41999.881; 0.07218
 600.86;35578.873;  273.568;41898.236; 0.07151
 601.44;35654.290;  279.130;41816.989; 0.06975
 602.02;35600.617;  273.135;41601.984; 0.06814
 602.59;35559.476;  269.019;41487.164; 0.06743
 603.17;35480.954;  254.435;41427.991; 0.06775
 603.75;35562.977;  264.600;41407.036; 0.06654
 604.33;35593.305;  268.544;41269.041; 0.06471
 604.91;35596.907;  272.574;41056.648; 0.06242
 605.49;35420.003;  271.546;40985.067; 0.06383
 606.07;35345.509;  254.900;40828.877; 0.06306
 606.65;35165.335;  260.422;40696.701; 0.06388
 607.23;35123.086;  264.441;40448.820; 0.06175
 607.80;35050.967;  277.156;40221.379; 0.06020
 608.38;35083.419;  277.256;40025.464; 0.05766
 608.96;34900.634;  285.786;39921.000; 0.05882
 609.54;34625.999;  288.246;39743.725; 0.06034
 610.12;34369.982;  283.928;39528.375; 0.06120
 610.70;34268.579;  273.259;39095.265; 0.05766
 611.28;34217.714;  259.195;38813.390; 0.05512
 611.85;34005.874;  265.841;38433.913; 0.05355
 612.43;33668.905;  260.695;38304.961; 0.05644
 613.01;33332.779;  263.202;38019.161; 0.05756
 613.59;33225.071;  249.299;37795.112; 0.05637
 614.17;33160.697;  240.914;37668.085; 0.05573
 614.75;33086.814;  222.778;37521.205; 0.05497
 615.32;32866.730;  209.277;37291.775; 0.05519
 615.90;32773.515;  219.080;36866.572; 0.05143
 616.48;32458.923;  232.952;36658.988; 0.05321
 617.06;32241.763;  255.157;36308.488; 0.05198
 617.64;31957.416;  246.140;36072.812; 0.05299
 618.22;31873.451;  241.049;35666.522; 0.04918
 618.79;31725.877;  228.178;35515.632; 0.04934
 619.37;31475.926;  227.104;35180.352; 0.04865
 619.95;31079.876;  231.387;34894.600; 0.05063
 620.53;30723.112;  218.869;34491.494; 0.05059
 621.11;30550.891;  206.529;34156.975; 0.04877
 621.68;30501.946;  201.116;33920.700; 0.04643
 622.26;30435.709;  202.843;33803.106; 0.04586
 622.84;30261.982;  212.594;33643.042; 0.04631
 623.42;30064.342;  214.208;33340.072; 0.04522
 623.99;29876.760;  232.130;33128.823; 0.04521
 624.57;29769.807;  239.695;32874.211; 0.04341
 625.15;29546.537;  249.244;32723.283; 0.04471
 625.73;29270.033;  235.066;32483.448; 0.04559
 626.30;29074.049;  228.444;32290.122; 0.04591
 626.88;28925.868;  228.031;32032.596; 0.04464
 627.46;28750.039;  230.061;31766.787; 0.04367
 628.04;28496.784;  242.419;31549.234; 0.04455
 628.61;28267.322;  241.899;31249.103; 0.04391
 629.19;28115.326;  244.829;31015.066; 0.04299
 629.77;27902.356;  231.831;30736.758; 0.04235
 630.35;27777.104;  234.217;30562.869; 0.04184
 630.92;27677.476;  232.092;30375.921; 0.04073
 631.50;27520.014;  220.757;30199.145; 0.04066
 632.08;27333.875;  206.521;29949.680; 0.03998
 632.66;27139.332;  196.801;29744.460; 0.04008
 633.23;26962.960;  216.776;29426.430; 0.03826
 633.81;26732.224;  225.566;29138.020; 0.03773
 634.39;26497.315;  220.298;28844.754; 0.03716
 634.96;26217.691;  221.956;28624.791; 0.03846
 635.54;26021.099;  216.680;28606.896; 0.04147
 636.12;25880.476;  214.735;28334.976; 0.03967
 636.69;25781.771;  204.526;28222.591; 0.03958
 637.27;25593.703;  199.403;27913.834; 0.03797
 637.85;25419.605;  217.219;27696.062; 0.03756
 638.42;25238.198;  206.286;27392.989; 0.03586
 639.00;25052.978;  223.367;27259.457; 0.03697
 639.58;24735.450;  209.789;26981.612; 0.03806
 640.15;24501.664;  222.891;26790.445; 0.03912
 640.73;24286.447;  204.119;26492.226; 0.03806
 641.31;24207.896;  216.013;26471.006; 0.03915
 641.88;24013.345;  210.908;26285.787; 0.03960
 642.46;23989.460;  226.803;26132.901; 0.03751
 643.04;23851.576;  214.697;25934.349; 0.03667
 643.61;23766.025;  223.925;25817.463; 0.03629
 644.19;23650.141;  209.153;25659.577; 0.03572
 644.77;23521.590;  224.048;25468.358; 0.03485
 645.34;23425.039;  211.943;25293.805; 0.03363
 645.92;23158.154;  214.504;25070.586; 0.03477
 646.49;23059.270;  218.399;24938.033; 0.03433
 647.07;22919.386;  220.293;24745.814; 0.03361
 647.65;22753.168;  224.188;24564.928; 0.03359
 648.22;22521.617;  218.082;24391.042; 0.03496
 648.80;22327.066;  227.310;24368.156; 0.03837
 649.37;22371.515;  227.872;24339.937; 0.03699
 649.95;22328.964;  227.433;24242.051; 0.03605
 650.53;22263.080;  209.328;24121.165; 0.03513
 651.10;22089.529;  214.222;24054.279; 0.03735
 651.68;22062.978;  211.450;24020.060; 0.03725
 652.25;22022.760;  221.012;23899.174; 0.03586
 652.83;21866.876;  211.573;23700.955; 0.03531
 653.41;21723.991;  208.468;23524.069; 0.03489
 653.98;21723.107;  212.362;23340.850; 0.03149
 654.56;21797.889;  211.590;23307.630; 0.02936
 655.13;21749.338;  208.818;23285.744; 0.02992
 655.71;21543.454;  207.379;23284.525; 0.03407
 656.28;21402.569;  194.941;23185.639; 0.03506
 656.86;21370.685;  188.169;22962.753; 0.03147
 657.43;21353.467;  190.397;22872.868; 0.03011
 658.01;21368.583;  212.958;22793.315; 0.02830
 658.58;21416.365;  207.519;22876.096; 0.02891
 659.16;21453.481;  211.747;22798.876; 0.02667
 659.74;21420.930;  196.309;22777.324; 0.02690
 660.31;21278.379;  204.203;22714.438; 0.02863
 660.89;21159.828;  198.098;22687.885; 0.03056
 661.46;21021.277;  206.659;22545.999; 0.03070
 662.04;20947.393;  208.554;22516.780; 0.03168
 662.61;20932.508;  207.448;22500.894; 0.03168
 663.19;21037.291;  206.676;22626.342; 0.03193
 663.76;21090.740;  209.571;22600.456; 0.03032
 664.34;21172.189;  211.132;22526.237; 0.02719
 664.91;21163.304;  214.027;22413.684; 0.02518
 665.49;21192.420;  216.922;22441.798; 0.02513
 666.06;21134.202;  213.150;22513.246; 0.02772
 666.64;21147.651;  212.044;22555.693; 0.02827
 667.21;21047.767;  216.606;22500.140; 0.02927
 667.79;21166.883;  204.167;22400.588; 0.02484
 668.36;21185.332;  201.395;22402.702; 0.02449
 668.93;21237.781;  202.290;22421.149; 0.02377
 669.51;21042.563;  198.184;22426.263; 0.02791
 670.08;20939.345;  192.412;22387.044; 0.02929
 670.66;21008.128;  189.307;22273.825; 0.02563
 671.23;21151.910;  213.201;22361.606; 0.02439
 671.81;21283.692;  219.763;22403.720; 0.02250
 672.38;21251.475;  224.324;22501.167; 0.02507
 672.96;21178.590;  213.552;22510.281; 0.02675
 673.53;21136.373;  213.113;22482.395; 0.02708
 674.10;21142.488;  213.008;22524.843; 0.02778
 674.68;21195.271;  228.236;22505.290; 0.02632
 675.25;21190.386;  221.131;22417.404; 0.02470
 675.83;21159.169;  215.692;22370.185; 0.02441
 676.40;21165.284;  203.253;22300.299; 0.02290
 676.98;21066.400;  209.148;22323.413; 0.02542
 677.55;20976.849;  210.043;22281.527; 0.02646
 678.12;20870.631;  223.937;22260.975; 0.02830
 678.70;20899.080;  221.832;22236.089; 0.02721
 679.27;20965.529;  229.060;22163.870; 0.02440
 679.85;20973.312;  216.621;22124.984; 0.02345
 680.42;20975.427;  216.516;22133.431; 0.02357
 680.99;20871.876;  192.744;22099.212; 0.02504
 681.57;20900.325;  198.305;22028.659; 0.02305
 682.14;20838.774;  205.866;21848.773; 0.02076
 682.71;20859.223;  210.761;21795.554; 0.01926
 683.29;20675.672;  200.656;21706.668; 0.02134
 683.86;20606.788;  185.884;21546.116; 0.01953
 684.43;20437.904;  198.112;21362.230; 0.01939
 685.01;20463.019;  197.006;21197.011; 0.01545
 685.58;20404.468;  206.234;21272.458; 0.01827
 686.16;20437.917;  206.462;21269.239; 0.01749
 686.73;20334.366;  215.023;21397.686; 0.02237
 687.30;20298.149;  207.585;21388.467; 0.02295
 687.88;20253.597;  217.479;21321.914; 0.02256
 688.45;20203.046;  210.707;21118.362; 0.01944
 689.02;20064.495;  213.602;21022.142; 0.02046
 689.60;20007.278;  190.497;20889.257; 0.01891
 690.17;19970.393;  199.391;20926.704; 0.02051
 690.74;19959.509;  189.619;20805.485; 0.01820
 691.31;19866.291;  204.181;20824.932; 0.02067
 691.89;19735.074;  191.742;20754.713; 0.02209
 692.46;19708.523;  212.637;20700.494; 0.02155
 693.03;19662.305;  229.198;20611.941; 0.02072
 693.61;19654.421;  234.759;20426.722; 0.01694
 694.18;19558.536;  237.320;20424.503; 0.01904
 694.75;19491.652;  206.882;20414.950; 0.02031
 695.32;19400.434;  208.110;20458.064; 0.02330
 695.90;19349.217;  203.004;20312.512; 0.02132
 696.47;19242.666;  203.899;20210.626; 0.02154
 697.04;19344.781;  214.460;20060.073; 0.01594
 697.62;19342.230;  213.355;20039.187; 0.01554
 698.19;19354.013;  229.250;19951.301; 0.01336
 698.76;19167.128;  211.144;19960.082; 0.01780
 699.33;19028.577;  210.706;19883.196; 0.01929
 699.91;18859.693;  196.600;19795.977; 0.02126
 700.48;18775.142;  206.162;19674.091; 0.02053
 701.05;18767.591;  208.056;19645.538; 0.02007
 701.62;18815.373;  232.951;19536.652; 0.01654
 702.20;18794.822;  235.179;19463.767; 0.01538
 702.77;18679.271;  232.073;19314.881; 0.01471
 703.34;18544.387;  217.301;19303.995; 0.01764
 703.91;18472.503;  214.196;19161.775; 0.01609
 704.48;18443.618;  220.091;19054.223; 0.01431
 705.06;18494.734;  212.652;18964.004; 0.01101
 705.63;18393.183;  221.213;18940.118; 0.01288
 706.20;18256.632;  214.441;18934.565; 0.01602
 706.77;18028.748;  221.336;18864.679; 0.01992
 707.34;18052.863;  215.564;18821.793; 0.01833
 707.92;18090.979;  205.792;18710.907; 0.01480
 708.49;18094.428;  193.353;18575.022; 0.01151
 709.06;17960.210;  193.248;18466.136; 0.01219
 709.63;17828.326;  194.476;18431.916; 0.01462
 710.20;17733.108;  191.037;18446.697; 0.01732
 710.77;17698.891;  187.932;18338.145; 0.01557
 711.35;17776.006;  185.826;18305.592; 0.01288
 711.92;17937.455;  205.721;18271.706; 0.00811
 712.49;18018.904;  207.616;18372.487; 0.00854
 713.06;17954.020;  215.844;18405.934; 0.01093
 713.63;17869.802;  209.405;18498.382; 0.01519
 714.20;17845.918;  212.300;18556.829; 0.01717
 714.78;17779.367;  209.528;18487.277; 0.01715
 715.35;17802.816;  205.756;18407.724; 0.01468
 715.92;17747.598;  207.317;18351.838; 0.01471
 716.49;17781.714;  222.545;18343.285; 0.01367
 717.06;17735.830;  226.106;18273.400; 0.01313
 717.63;17769.279;  217.334;18198.847; 0.01050
 718.20;17735.728;  210.895;18175.294; 0.01076
 718.77;17676.843;  224.790;18170.075; 0.01210
 719.35;17555.959;  226.351;18153.189; 0.01471
 719.92;17512.408;  211.913;18038.303; 0.01300
 720.49;17439.190;  197.474;17879.084; 0.01094
 721.06;17449.306;  177.369;17774.532; 0.00810
 721.63;17350.422;  190.930;17799.979; 0.01123
 722.20;17289.870;  195.825;17861.426; 0.01428
 722.77;17256.653;  203.386;17825.540; 0.01425
 723.34;17266.768;  196.947;17821.321; 0.01388
 723.91;17350.551;  205.509;17813.102; 0.01156
 724.48;17268.666;  222.070;17777.883; 0.01278
 725.05;17245.782;  212.964;17617.997; 0.00939
 725.62;17088.564;  195.192;17490.778; 0.01022
 726.20;17100.347;  186.754;17461.892; 0.00919
 726.77;17148.462;  192.982;17446.339; 0.00756
 727.34;17163.578;  199.210;17412.787; 0.00633
 727.91;17142.027;  209.104;17361.567; 0.00559
 728.48;17097.476;  214.999;17354.015; 0.00655
 729.05;17163.592;  215.560;17353.795; 0.00485
 729.62;17177.041;  192.788;17320.910; 0.00366
 730.19;17089.823;  185.683;17297.024; 0.00529
 730.76;16987.605;  188.578;17324.138; 0.00861
 731.33;16856.721;  211.472;17306.252; 0.01157
 731.90;16844.503;  215.034;17274.033; 0.01108
 732.47;16812.619;  206.261;17242.147; 0.01109
 733.04;16735.068;  191.156;17245.594; 0.01320
 733.61;16656.184;  168.051;17256.042; 0.01552
 734.18;16645.633;  173.945;17191.156; 0.01415
 734.75;16631.748;  184.507;17077.270; 0.01161
 735.32;16621.864;  211.401;16955.384; 0.00874
 735.89;16590.980;  203.963;16851.831; 0.00686
 736.46;16550.095;  212.191;16734.945; 0.00489
 737.03;16416.211;  203.085;16674.393; 0.00686
 737.60;16283.993;  203.647;16580.840; 0.00794
 738.17;16155.109;  173.208;16558.621; 0.01083
 738.74;16086.225;  184.103;16523.735; 0.01179
 739.31;15979.340;  185.331;16430.849; 0.01224
 739.88;15981.789;  195.225;16300.630; 0.00868
 740.45;15995.905;  176.120;16234.411; 0.00650
 741.02;15963.354;  174.348;16293.858; 0.00900
 741.59;15951.136;  171.909;16337.305; 0.01050
 742.15;15965.585;  177.804;16325.753; 0.00980
 742.72;15965.701;  185.365;16376.867; 0.01117
 743.29;15930.817;  187.593;16351.648; 0.01146
 743.86;15902.599;  195.154;16298.095; 0.01080
 744.43;15916.381;  197.049;16220.543; 0.00832
 745.00;15944.164;  201.277;16240.323; 0.00809
 745.57;15950.279;  209.172;16261.771; 0.00851
 746.14;15948.395;  201.733;16198.552; 0.00685
 746.71;15912.511;  208.294;16179.666; 0.00733
 747.28;15940.960;  196.522;16170.446; 0.00628
 747.85;15962.742;  172.417;16124.227; 0.00442
 748.42;16047.191;  173.645;16103.675; 0.00154
 748.98;15964.307;  177.206;16075.455; 0.00305
 749.55;15917.756;  197.767;16011.569; 0.00258
 750.12;15797.205;  197.662;16015.683; 0.00604
 750.69;15728.654;  204.890;15955.131; 0.00629
 751.26;15719.103;  216.118;15910.245; 0.00532
 751.83;15718.552;  206.013;15821.026; 0.00286
 752.40;15760.001;  204.907;15769.807; 0.00027
 752.97;15692.450;  192.802;15780.587; 0.00246
 753.53;15646.232;  195.697;15773.035; 0.00355
 754.10;15576.348;  187.925;15706.815; 0.00367
 754.67;15552.130;  185.486;15666.263; 0.00321
 755.24;15490.246;  192.714;15616.044; 0.00356
 755.81;15407.028;  200.608;15583.491; 0.00501
 756.38;15314.477;  223.503;15510.272; 0.00560
 756.94;15288.259;  215.064;15482.386; 0.00556
 757.51;15282.375;  204.292;15502.833; 0.00630
 758.08;15231.490;  196.520;15545.281; 0.00897
 758.65;15126.606;  213.748;15443.728; 0.00914
 759.22;15002.388;  220.643;15351.176; 0.01013
 759.79;14894.837;  205.538;15180.623; 0.00837
 760.35;14744.620;  191.432;15130.404; 0.01136
 760.92;14649.069;  201.994;14987.518; 0.01006
 761.49;14542.518;  208.555;14849.965; 0.00922
 762.06;14552.300;  211.783;14641.079; 0.00268
 762.63;14474.082;  201.011;14500.527; 0.00080
 763.19;14443.198;  203.239;14469.641; 0.00081
 763.76;14316.314;  215.133;14423.422; 0.00329
 764.33;14132.429;  219.695;14294.202; 0.00502
 764.90;13890.545;  218.589;14107.650; 0.00684
 765.46;13650.661;  197.817;13914.097; 0.00842
 766.03;13551.110;  196.045;13749.878; 0.00642
 766.60;13461.225;  197.940;13624.992; 0.00533
 767.17;13393.341;  205.501;13465.773; 0.00238
 767.73;13253.123;  207.063;13413.220; 0.00530
 768.30;13117.239;  206.624;13205.001; 0.00294
 768.87;12929.021;  215.185;13045.782; 0.00397
 769.44;12791.470;  213.413;12836.229; 0.00154
 770.00;12594.253;  215.975;12686.677; 0.00323
 770.57;12458.035;  216.536;12525.791; 0.00240
 771.14;12241.484;  213.430;12350.238; 0.00391
 771.71;12007.933;  198.325;12122.686; 0.00420
 772.27;11778.715;  206.220;11935.800; 0.00586
 772.84;11626.164;  209.448;11715.914; 0.00340
 773.41;11536.947;  213.676;11595.695; 0.00225
 773.97;11406.062;  205.904;11440.809; 0.00135
 774.54;11209.511;  213.798;11314.923; 0.00414
 775.11;11022.294;  232.360;11227.370; 0.00818
 775.67;10840.076;  228.588;11074.818; 0.00950
 776.24;10745.525;  222.482;10902.265; 0.00642
 776.81;10652.641;  220.377;10665.712; 0.00054
 777.38;10529.090;  208.272;10484.160;-0.00189
 777.94;10425.539;  214.166;10350.941;-0.00318
 778.51;10327.321;  199.728;10214.721;-0.00486
 779.08;10226.103;  210.622;10137.835;-0.00384
 779.64;10032.886;  201.517;10058.283; 0.00112
 780.21; 9898.335;  202.745; 9970.064; 0.00320
 780.78; 9791.117;  211.639; 9870.178; 0.00357
 781.34; 9728.899;  212.534; 9787.625; 0.00267
 781.91; 9631.015;  225.762; 9703.406; 0.00333
 782.47; 9521.797;  227.990; 9633.520; 0.00519
 783.04; 9431.913;  238.551; 9482.634; 0.00239
 783.61; 9377.029;  245.779; 9385.415; 0.00040
 784.17; 9394.144;  246.674; 9320.196;-0.00353
 784.74; 9299.927;  236.569; 9240.310;-0.00287
 785.31; 9201.376;  244.797; 9256.090; 0.00264
 785.87; 9077.825;  248.691; 9137.538; 0.00293
 786.44; 9091.607;  252.252; 9126.319; 0.00170
 787.00; 9053.056;  239.480; 9065.766; 0.00063
 787.57; 9043.172;  222.375; 9005.880;-0.00184
 788.14; 8983.287;  242.936; 8941.661;-0.00207
 788.70; 8938.736;  252.831; 8828.442;-0.00555
 789.27; 8896.519;  261.392; 8880.222;-0.00082
 789.83; 8889.301;  247.620; 8836.003;-0.00269
 790.40; 8878.416;  230.182; 8838.117;-0.00203
 790.96; 8867.199;  235.076; 8799.898;-0.00340
 791.53; 8775.648;  229.304; 8766.679;-0.00046
 792.10; 8750.763;  224.866; 8777.126; 0.00134
 792.66; 8699.879;  219.094; 8720.574; 0.00106
 793.23; 8716.661;  214.988; 8733.688; 0.00087
 793.79; 8674.444;  216.216; 8675.468; 0.00005
 794.36; 8620.559;  210.777; 8660.249; 0.00204
 794.92; 8585.342;  219.339; 8606.363; 0.00109
 795.49; 8540.457;  232.233; 8532.811;-0.00040
 796.05; 8534.906;  243.461; 8505.258;-0.00156
 796.62; 8477.355;  248.023; 8527.372; 0.00263
 797.19; 8439.138;  237.917; 8507.820; 0.00362
 797.75; 8409.587;  226.145; 8453.600; 0.00233
 798.32; 8423.036;  218.373; 8393.714;-0.00155
 798.88; 8403.818;  222.601; 8383.829;-0.00106
 799.45; 8457.267;  224.829; 8436.276;-0.00111
 800.01; 8546.383;  220.391; 8517.723;-0.00150
 800.58; 8759.498;  215.952; 8677.504;-0.00419
 801.14; 8960.281;  222.513; 8916.952;-0.00216
 801.71; 9210.730;  218.074; 9117.399;-0.00453
 802.27; 9415.512;  206.969; 9310.180;-0.00500
 802.84; 9657.294;  188.864; 9480.294;-0.00820
 803.40; 9908.410;  179.758; 9723.075;-0.00835
 803.96;10264.859;  198.986;10006.189;-0.01131
 804.53;10599.641;  210.548;10273.303;-0.01386
 805.09;10860.757;  208.442;10576.417;-0.01175
 805.66;11151.206;  200.670;10926.198;-0.00902
 806.22;11369.322;  172.898;11264.978;-0.00407
 806.79;11785.771;  185.793;11622.426;-0.00616
 807.35;12056.553;  182.354;11886.873;-0.00625
 807.92;12466.669;  214.582;12161.654;-0.01095
 808.48;12728.451;  221.810;12436.768;-0.01025
 809.05;13058.233;  217.705;12708.882;-0.01198
 809.61;13408.349;  213.933;13054.330;-0.01181
 810.17;13707.798;  218.827;13355.110;-0.01151
 810.74;14036.247;  231.055;13671.891;-0.01162
 811.30;14327.363;  226.617;13899.672;-0.01338
 811.87;14688.478;  214.511;14212.453;-0.01452
 812.43;15004.927;  214.406;14571.233;-0.01293
 812.99;15324.710;  216.967;14881.014;-0.01295
 813.56;15617.492;  221.862;15191.462;-0.01219
 814.12;15936.941;  221.090;15523.909;-0.01157
 814.69;16248.057;  216.318;15866.356;-0.01047
 815.25;16585.172;  210.213;16143.804;-0.01187
 815.81;16915.955;  200.774;16302.251;-0.01625
 816.38;17186.404;  196.335;16642.699;-0.01413
 816.94;17426.186;  193.897;16882.479;-0.01392
 817.51;17726.302;  192.791;17283.594;-0.01111
 818.07;18022.417;  201.019;17504.374;-0.01281
 818.63;18304.533;  202.247;17804.155;-0.01217
 819.20;18460.649;  201.808;18033.936;-0.01027
 819.76;18591.098;  209.370;18216.050;-0.00895
 820.32;18836.547;  216.598;18394.831;-0.01043
 820.89;19010.662;  218.159;18583.278;-0.00999
 821.45;19285.778;  193.387;18775.726;-0.01176
 822.01;19359.227;  176.615;18965.173;-0.00901
 822.58;19499.676;  180.843;19065.620;-0.00987
 823.14;19528.458;  194.404;19233.068;-0.00669
 823.70;19676.907;  202.299;19352.182;-0.00730
 824.27;19764.689;  193.194;19462.963;-0.00675
 824.83;19801.472;  215.421;19467.743;-0.00746
 825.39;19676.254;  215.649;19374.524;-0.00679
 825.95;19591.370;  221.211;19316.972;-0.00620
 826.52;19466.485;  191.105;19274.752;-0.00434
 827.08;19289.268;  189.000;19152.200;-0.00313
 827.64;19109.717;  175.895;18949.314;-0.00369
 828.21;18793.166;  175.123;18660.095;-0.00312
 828.77;18510.615;  181.351;18397.542;-0.00269
 829.33;18158.064;  183.579;18029.323;-0.00312
 829.89;17887.513;  181.807;17638.104;-0.00616
 830.46;17631.962;  185.701;17297.218;-0.00841
 831.02;17224.411;  190.596;16895.332;-0.00847
 831.58;16888.526;  201.157;16540.779;-0.00915
 832.15;16364.975;  185.052;16128.893;-0.00638
 832.71;15936.424;  188.280;15811.341;-0.00346
 833.27;15422.540;  178.841;15353.455;-0.00197
 833.83;14975.989;  169.736;14940.569;-0.00104
 834.39;14494.771;  164.297;14394.016;-0.00306
 834.96;14043.220;  162.192;13925.464;-0.00370
 835.52;13659.669;  187.086;13474.578;-0.00601
 836.08;13260.118;  188.981;13047.025;-0.00714
 836.64;12842.901;  194.876;12619.473;-0.00774
 837.21;12359.016;  198.770;12148.920;-0.00757
 837.77;12014.799;  198.332;11759.367;-0.00949
 838.33;11566.914;  206.893;11447.148;-0.00460
 838.89;11178.030;  203.121;11001.596;-0.00704
 839.45;10671.479;  205.349;10589.710;-0.00341
 840.02;10272.261;  209.910;10134.490;-0.00599
 840.58; 9914.710;  201.805; 9836.938;-0.00349
 841.14; 9525.493;  224.699; 9457.052;-0.00321
 841.70; 9076.608;  220.594; 9049.833;-0.00132
 842.26; 8673.391;  218.155; 8613.280;-0.00310
 842.82; 8314.506;  209.050; 8233.061;-0.00439
 843.39; 7940.289;  200.278; 7802.175;-0.00782
 843.95; 7504.404;  213.839; 7446.956;-0.00344
 844.51; 7079.853;  213.734; 7076.737;-0.00020
 845.07; 6756.969;  223.295; 6751.184;-0.00038
 845.63; 6512.418;  228.523; 6447.965;-0.00448
 846.19; 6349.534;  213.418; 6205.745;-0.01030
 846.75; 6170.316;  212.646; 6042.860;-0.00939
 847.32; 5976.765;  191.874; 5828.307;-0.01129
 847.88; 5717.881;  198.435; 5647.088;-0.00561
 848.44; 5478.330;  182.996; 5418.202;-0.00496
 849.00; 5242.112;  188.224; 5206.649;-0.00306
 849.56; 5109.228;  183.119; 5035.763;-0.00653
 850.12; 5040.010;  176.680; 4913.211;-0.01147
 850.68; 4984.126;  181.908; 4877.325;-0.00977
 851.24; 4940.575;  184.136; 4806.439;-0.01242
 851.80; 4941.690;  199.364; 4790.220;-0.01410
 852.37; 4918.473;  196.592; 4731.334;-0.01756
 852.93; 4874.588;  204.820; 4729.448;-0.01371
 853.49; 4774.704;  212.715; 4650.895;-0.01195
 854.05; 4747.153;  223.943; 4597.676;-0.01459
 854.61; 4700.935;  224.171; 4520.790;-0.01784
 855.17; 4691.384;  234.066; 4501.904;-0.01887
 855.73; 4676.167;  222.627; 4484.352;-0.01912
 856.29; 4712.949;  213.855; 4475.132;-0.02359
 856.85; 4715.398;  192.749; 4517.913;-0.01939
 857.41; 4747.514;  203.644; 4600.027;-0.01433
 857.97; 4776.296;  205.205; 4760.141;-0.00154
 858.53; 4905.411;  207.433; 4902.255;-0.00029
 859.09; 5089.860;  192.328; 5028.370;-0.00549
 859.65; 5338.309;  184.889; 5166.484;-0.01473
 860.21; 5621.758;  182.451; 5403.598;-0.01778
 860.77; 5934.874;  179.679; 5685.045;-0.01927
 861.33; 6260.990;  189.573; 6014.826;-0.01798
 861.89; 6587.772;  205.135; 6331.273;-0.01781
 862.45; 6911.554;  215.363; 6656.387;-0.01687
 863.01; 7244.670;  205.924; 6960.168;-0.01792
 863.57; 7602.786;  191.152; 7240.949;-0.02174
 864.13; 7972.568;  180.713; 7598.730;-0.02135
 864.69; 8330.684;  188.608; 7928.510;-0.02200
 865.25; 8686.466;  208.502; 8274.958;-0.02161
 865.81; 8999.582;  215.730; 8598.739;-0.02029
 866.37; 9359.364;  213.625; 8883.853;-0.02319
 866.93; 9644.480;  200.853; 9198.967;-0.02099
 867.49;10014.929;  216.081; 9536.081;-0.02176
 868.05;10342.044;  210.642; 9849.195;-0.02166
 868.61;10699.160;  206.870;10116.309;-0.02482
 869.17;10983.942;  185.765;10306.090;-0.02816
 869.73;11310.058;  202.660;10652.537;-0.02650
 870.29;11591.507;  209.554;10985.985;-0.02374
 870.85;11917.623;  212.115;11316.099;-0.02291
 871.41;12242.738;  192.010;11700.213;-0.02001
 871.97;12622.521;  179.571;12032.994;-0.02108
 872.53;13022.303;  184.799;12414.108;-0.02108
 873.09;13363.752;  192.361;12748.222;-0.02079
 873.65;13821.534;  202.922;13125.336;-0.02279
 874.20;14207.650;  204.150;13530.783;-0.02152
 874.76;14644.317;  206.483;13844.450;-0.02475
 875.32;14949.317;  199.150;14344.450;-0.01818
 875.88;15319.317;  204.817;14722.117;-0.01751
 876.44;15627.317;  218.150;15059.450;-0.01631
 877.00;15987.650;  218.150;15358.117;-0.01769
 877.56;16325.983;  215.483;15696.450;-0.01731
 878.12;16644.650;  204.483;16104.450;-0.01451
 878.68;16920.983;  211.817;16344.450;-0.01525
 879.23;17169.650;  207.150;16637.783;-0.01384
 879.79;17478.317;  220.483;16875.783;-0.01543
 880.35;17776.983;  205.150;17127.117;-0.01637
 880.91;17992.317;  192.150;17367.783;-0.01551
 881.47;18278.650;  175.817;17611.783;-0.01630
 882.03;18522.317;  191.483;17929.783;-0.01427
 882.59;18903.317;  204.150;18199.450;-0.01666
 883.14;19071.317;  217.150;18423.117;-0.01519
 883.70;19196.983;  220.150;18492.117;-0.01644
 884.26;19195.317;  217.483;18606.117;-0.01370
 884.82;19256.317;  200.150;18627.783;-0.01457
 885.38;19275.317;  184.483;18693.783;-0.01343
 885.94;19329.983;  186.817;18692.783;-0.01470
 886.49;19354.317;  200.150;18759.783;-0.01369
 887.05;19428.317;  192.817;18819.450;-0.01397
 887.61;19333.650;  182.817;18766.450;-0.01306
 888.17;19232.317;  175.817;18655.450;-0.01335
 888.73;19052.983;  189.483;18492.450;-0.01310
 889.28;18927.650;  190.150;18251.117;-0.01597
 889.84;18747.983;  191.817;18020.450;-0.01737
 890.40;18570.650;  194.817;17792.450;-0.01879
 890.96;18389.983;  199.483;17628.450;-0.01857
 891.51;18184.317;  189.483;17470.117;-0.01759
 892.07;17863.650;  183.817;17244.117;-0.01549
 892.63;17715.317;  190.483;17036.783;-0.01715
 893.19;17548.650;  200.817;16880.117;-0.01707
 893.74;17480.317;  215.150;16772.783;-0.01817
 894.30;17293.983;  206.150;16671.450;-0.01612
 894.86;17218.983;  185.150;16510.450;-0.01845
 895.42;17154.650;  176.483;16397.450;-0.01981
 895.97;17045.317;  175.150;16362.450;-0.01794
 896.53;16889.983;  203.817;16299.450;-0.01565
 897.09;16794.983;  212.817;16258.117;-0.01429
 897.65;16702.317;  225.483;16079.783;-0.01673
 898.20;16699.983;  228.483;15994.117;-0.01902
 898.76;16729.317;  215.150;15888.117;-0.02271
 899.32;16591.650;  215.483;15824.450;-0.02084
 899.87;16480.983;  206.483;15765.117;-0.01954
 900.43;16238.650;  206.150;15631.783;-0.01676
 900.99;16174.650;  194.483;15508.450;-0.01849
 901.54;15925.317;  181.150;15319.450;-0.01704
 902.10;15756.317;  193.150;15133.117;-0.01775
 902.66;15564.983;  208.483;14918.117;-0.01869
 903.21;15452.317;  221.817;14754.117;-0.02038
 903.77;15278.983;  229.483;14588.450;-0.02040
 904.33;15106.317;  209.483;14443.783;-0.01976
 904.88;14967.317;  198.150;14329.783;-0.01916
 905.44;14853.650;  177.150;14293.450;-0.01690
 906.00;14743.317;  191.150;14324.117;-0.01269
 906.55;14715.317;  207.483;14294.117;-0.01280
 907.11;14636.317;  214.150;14239.117;-0.01213
 907.67;14486.317;  205.817;14016.117;-0.01454
 908.22;14265.983;  196.150;13855.783;-0.01285
 908.78;14154.983;  187.817;13715.783;-0.01388
 909.33;14139.650;  195.483;13616.783;-0.01660
 909.89;14118.983;  192.150;13488.783;-0.02011
 910.45;14067.317;  201.150;13406.783;-0.02120
 911.00;13928.983;  191.483;13362.117;-0.01830
 911.56;13740.650;  203.817;13272.117;-0.01530
 912.12;13559.650;  208.483;13101.117;-0.01518
 912.67;13407.317;  221.483;12951.117;-0.01529
 913.23;13244.317;  194.150;12807.450;-0.01479
 913.78;13126.983;  178.483;12651.783;-0.01624
 914.34;13088.983;  201.483;12642.117;-0.01533
 914.89;13025.650;  216.483;12543.117;-0.01668
 915.45;12984.983;  227.150;12558.117;-0.01478
 916.01;12835.317;  195.483;12386.117;-0.01572
 916.56;12761.983;  201.483;12282.450;-0.01691
 917.12;12627.650;  196.817;12063.117;-0.02018
 917.67;12507.983;  195.483;11981.117;-0.01899
 918.23;12431.650;  182.817;11944.450;-0.01763
 918.78;12294.650;  186.483;11927.117;-0.01339
 919.34;12219.317;  188.817;11843.783;-0.01377
 919.89;12091.650;  199.150;11694.117;-0.01477
 920.45;11965.317;  185.817;11531.783;-0.01629
 921.00;11823.317;  168.817;11330.783;-0.01875
 921.56;11693.983;  176.150;11296.783;-0.01524
 922.11;11540.983;  175.150;11154.450;-0.01503
 922.67;11346.317;  202.483;11048.450;-0.01177
 923.22;11169.317;  191.150;10815.450;-0.01423
 923.78;11052.317;  202.817;10632.117;-0.01715
 924.33;10958.317;  195.817;10497.117;-0.01902
 924.89;10735.650;  196.483;10361.117;-0.01571
 925.44;10542.983;  204.817;10248.117;-0.01257
 926.00;10429.983;  201.150;10018.783;-0.01782
 926.55;10344.317;  205.150; 9867.117;-0.02094
 927.11;10287.317;  188.150; 9720.450;-0.02509
 927.66;10163.983;  177.817; 9717.117;-0.01988
 928.22;10134.317;  174.483; 9670.783;-0.02070
 928.77;10058.983;  190.150; 9636.117;-0.01902
 929.33;10054.650;  204.150; 9587.783;-0.02109
 929.88; 9979.983;  205.150; 9516.450;-0.02110
 930.43; 9960.983;  182.483; 9493.450;-0.02128
 930.99; 9849.650;  174.817; 9470.117;-0.01738
 931.54; 9864.650;  167.150; 9456.783;-0.01866
 932.10; 9853.983;  190.150; 9473.117;-0.01746
 932.65; 9915.983;  197.150; 9480.117;-0.01993
 933.21; 9839.983;  198.483; 9496.450;-0.01576
 933.76; 9846.983;  187.483; 9472.117;-0.01719
 934.31; 9870.317;  183.150; 9454.117;-0.01907
 934.87; 9909.650;  190.150; 9433.783;-0.02180
 935.42; 9925.983;  199.483; 9431.450;-0.02266
 935.98; 9826.650;  195.483; 9388.450;-0.02022
 936.53; 9805.983;  193.817; 9335.450;-0.02180
 937.08; 9717.650;  191.150; 9347.783;-0.01720
 937.64; 9653.983;  197.817; 9356.783;-0.01387
 938.19; 9648.983;  196.483; 9425.117;-0.01041
 938.74; 9667.983;  199.817; 9340.117;-0.01531
 939.30; 9741.650;  187.150; 9339.783;-0.01866
 939.85; 9735.983;  186.483; 9209.783;-0.02462
 940.40; 9705.983;  173.817; 9251.783;-0.02120
 940.96; 9700.317;  187.150; 9238.450;-0.02161
 941.51; 9661.983;  189.483; 9244.783;-0.01956
 942.06; 9579.650;  197.150; 9160.450;-0.01985
 942.62; 9487.983;  184.817; 9036.783;-0.02159
 943.17; 9387.650;  195.150; 8966.450;-0.02037
 943.72; 9317.983;  180.483; 8903.117;-0.02018
 944.28; 9239.650;  199.483; 8795.117;-0.02190
 944.83; 9163.650;  184.150; 8766.783;-0.01963
 945.38; 9115.983;  194.483; 8735.117;-0.01895
 945.94; 9034.317;  186.483; 8804.450;-0.01143
 946.49; 9098.317;  205.150; 8772.783;-0.01620
 947.04; 9064.317;  208.817; 8738.117;-0.01630
 947.60; 9035.650;  215.150; 8638.117;-0.02003
 948.15; 8871.650;  203.483; 8519.117;-0.01803
 948.70; 8754.317;  212.817; 8413.783;-0.01767
 949.25; 8668.983;  206.150; 8325.117;-0.01802
 949.81; 8565.317;  208.817; 8271.117;-0.01557
 950.36; 8459.650;  198.483; 8157.117;-0.01620
 950.91; 8331.650;  207.150; 8037.783;-0.01600
 951.46; 8176.317;  203.817; 7873.117;-0.01684
 952.02; 8012.317;  207.150; 7734.117;-0.01576
 952.57; 7853.983;  207.150; 7606.450;-0.01429
 953.12; 7736.650;  218.483; 7526.117;-0.01234
 953.67; 7645.983;  218.150; 7443.783;-0.01199
 954.23; 7560.983;  215.817; 7359.450;-0.01208
 954.78; 7487.650;  208.150; 7234.450;-0.01537
 955.33; 7412.983;  218.150; 7119.783;-0.01807
 955.88; 7338.317;  217.150; 6980.117;-0.02241
 956.44; 7248.317;  230.483; 6838.450;-0.02614
 956.99; 7185.317;  228.817; 6737.117;-0.02892
 957.54; 7086.650;  223.817; 6672.783;-0.02701
 958.09; 6999.983;  222.150; 6636.783;-0.02392
 958.64; 6917.317;  206.817; 6607.450;-0.02053
 959.20; 6850.317;  203.483; 6532.450;-0.02128
 959.75; 6785.983;  199.817; 6496.450;-0.01952
 960.30; 6711.317;  218.150; 6441.783;-0.01841
 960.85; 6654.650;  225.150; 6424.450;-0.01583
 961.40; 6680.650;  228.817; 6381.117;-0.02065
 961.95; 6676.983;  231.817; 6360.783;-0.02185
 962.51; 6723.317;  239.483; 6360.117;-0.02504
 963.06; 6741.983;  242.817; 6380.117;-0.02488
 963.61; 6719.650;  234.150; 6314.783;-0.02799
 964.16; 6662.650;  235.150; 6258.450;-0.02821
 964.71; 6608.983;  222.483; 6212.117;-0.02786
 965.26; 6654.983;  213.150; 6253.117;-0.02797
 965.81; 6684.317;  210.817; 6289.117;-0.02736
 966.36; 6676.983;  208.483; 6323.783;-0.02439
 966.92; 6668.983;  216.150; 6305.117;-0.02521
 967.47; 6683.650;  218.483; 6338.117;-0.02385
 968.02; 6735.317;  232.483; 6354.117;-0.02624
 968.57; 6766.650;  234.817; 6375.450;-0.02682
 969.12; 6793.650;  219.817; 6368.783;-0.02902
 969.67; 6800.317;  204.483; 6420.783;-0.02574
 970.22; 6847.650;  194.150; 6469.783;-0.02539
 970.77; 6960.650;  199.817; 6539.117;-0.02796
 971.32; 7046.317;  197.483; 6593.117;-0.02973
 971.87; 7113.317;  198.817; 6693.117;-0.02723
 972.42; 7163.983;  215.150; 6793.117;-0.02382
 972.98; 7264.317;  220.817; 6908.783;-0.02249
 973.53; 7347.317;  231.483; 6996.117;-0.02198
 974.08; 7410.317;  215.483; 7040.450;-0.02292
 974.63; 7439.983;  223.483; 7078.450;-0.02232
 975.18; 7481.983;  218.483; 7103.117;-0.02327
 975.73; 7570.650;  224.817; 7157.450;-0.02514
 976.28; 7637.317;  221.483; 7219.117;-0.02521
 976.83; 7736.983;  221.483; 7315.450;-0.02507
 977.38; 7753.983;  219.483; 7373.783;-0.02249
 977.93; 7766.317;  222.150; 7387.450;-0.02238
 978.48; 7737.983;  228.483; 7365.783;-0.02208
 979.03; 7755.983;  234.817; 7358.117;-0.02360
 979.58; 7774.650;  221.483; 7329.117;-0.02640
 980.13; 7782.317;  207.150; 7367.783;-0.02444
 980.68; 7696.317;  186.483; 7310.450;-0.02291
 981.23; 7624.650;  185.817; 7278.117;-0.02072
 981.78; 7620.317;  207.150; 7207.450;-0.02489
 982.33; 7598.983;  219.150; 7257.117;-0.02060
 982.88; 7549.650;  232.483; 7211.783;-0.02053
 983.43; 7464.650;  218.150; 7145.783;-0.01954
 983.98; 7416.317;  215.150; 6984.117;-0.02688
 984.53; 7358.650;  203.817; 6873.450;-0.03050
 985.08; 7303.317;  209.817; 6835.783;-0.02961
 985.63; 7242.650;  211.150; 6787.117;-0.02909
 986.18; 7148.317;  218.817; 6756.783;-0.02526
 986.73; 6991.650;  218.483; 6610.450;-0.02516
 987.27; 6892.650;  227.483; 6521.117;-0.02491
 987.82; 6868.983;  238.483; 6431.783;-0.02962
 988.37; 6795.317;  243.150; 6400.783;-0.02697
 988.92; 6704.983;  234.150; 6351.117;-0.02442
 989.47; 6544.650;  214.483; 6285.117;-0.01818
 990.02; 6469.650;  208.483; 6199.117;-0.01918
 990.57; 6371.650;  208.150; 6083.117;-0.02082
 991.12; 6326.650;  215.150; 6044.450;-0.02053
 991.67; 6277.650;  213.817; 5969.117;-0.02268
 992.22; 6180.983;  200.483; 5915.450;-0.01972
 992.77; 6139.650;  200.150; 5802.450;-0.02538
 993.31; 6010.650;  204.817; 5735.783;-0.02106
 993.86; 5956.650;  230.483; 5683.783;-0.02120
 994.41; 5846.650;  235.150; 5580.117;-0.02113
 994.96; 5750.317;  226.483; 5473.117;-0.02236
 995.51; 5646.317;  218.817; 5377.783;-0.02204
 996.06; 5507.317;  208.483; 5293.783;-0.01786
 996.61; 5434.317;  222.483; 5201.783;-0.01982
 997.15; 5309.317;  236.150; 5083.450;-0.01978
 997.70; 5230.317;  241.150; 4965.117;-0.02372
 998.25; 5082.317;  247.483; 4873.450;-0.01918
 998.80; 4988.983;  248.483; 4740.117;-0.02342
 999.35; 4832.650;  249.483; 4623.450;-0.02029
 999.90; 4703.983;  236.150; 4455.117;-0.02489
1000.44; 4540.983;  224.483; 4340.450;-0.02066
1000.99; 4423.650;  232.483; 4190.783;-0.02483
1001.54; 4323.650;  237.150; 4067.450;-0.02812
1002.09; 4221.650;  231.817; 3939.117;-0.03190
1002.64; 4097.983;  238.483; 3855.450;-0.02819
1003.18; 3947.317;  240.483; 3766.783;-0.02168
1003.73; 3851.317;  238.483; 3661.450;-0.02345
1004.28; 3756.650;  226.817; 3584.450;-0.02172
1004.83; 3660.983;  209.483; 3488.117;-0.02232
1005.38; 3589.650;  210.150; 3420.783;-0.02226
1005.92; 3524.317;  219.150; 3321.783;-0.02746
1006.47; 3507.650;  236.817; 3231.783;-0.03827
1007.02; 3380.983;  235.483; 3140.117;-0.03460
1007.57; 3272.317;  222.817; 3087.450;-0.02716
1008.11; 3172.650;  211.817; 3028.450;-0.02168
1008.66; 3095.317;  205.150; 2973.450;-0.01871
1009.21; 3042.983;  192.483; 2907.783;-0.02110
1009.75; 2947.650;  177.817; 2862.117;-0.01362
1010.30; 2884.650;  170.150; 2793.117;-0.01490
1010.85; 2799.650;  176.817; 2712.783;-0.01463
1011.40; 2754.983;  204.150; 2628.450;-0.02210
1011.94; 2732.983;  221.817; 2545.783;-0.03365
1012.49; 2643.317;  216.483; 2464.450;-0.03325
1013.04; 2548.983;  194.150; 2362.117;-0.03591
1013.58; 2446.983;  184.150; 2325.117;-0.02404
1014.13; 2366.650;  188.483; 2268.117;-0.02010
1014.68; 2328.983;  196.483; 2233.450;-0.01991
1015.23; 2278.317;  203.150; 2181.450;-0.02076
1015.77; 2264.317;  199.817; 2113.117;-0.03303
1016.32; 2205.983;  204.817; 2072.450;-0.02999
1016.87; 2145.650;  209.483; 2012.783;-0.03087
1017.41; 2079.650;  206.817; 1977.450;-0.02437
1017.96; 2030.317;  194.817; 1953.450;-0.01858
1018.50; 1968.650;  186.483; 1926.450;-0.01041
1019.05; 1933.317;  188.483; 1903.450;-0.00750
1019.60; 1865.983;  182.817; 1815.783;-0.01315
1020.14; 1848.317;  196.150; 1752.783;-0.02587
1020.69; 1785.650;  196.150; 1698.117;-0.02460
1021.24; 1731.317;  209.483; 1650.450;-0.02371
1021.78; 1658.317;  188.483; 1620.450;-0.01134
1022.33; 1633.317;  190.150; 1592.450;-0.01248
1022.87; 1610.650;  182.817; 1587.783;-0.00701
1023.42; 1597.317;  198.150; 1567.117;-0.00948
1023.97; 1546.983;  200.150; 1516.117;-0.01007
1024.51; 1526.983;  212.150; 1465.117;-0.02093
1025.06; 1439.317;  200.483; 1401.117;-0.01360
1025.60; 1413.983;  198.817; 1340.783;-0.02698
1026.15; 1346.650;  181.150; 1307.783;-0.01473
1026.70; 1337.317;  185.483; 1284.783;-0.02027
1027.24; 1315.317;  195.483; 1279.783;-0.01400
1027.79; 1312.983;  200.483; 1270.450;-0.01693
1028.33; 1298.317;  197.483; 1252.450;-0.01848
1028.88; 1260.650;  188.817; 1215.450;-0.01871
1029.42; 1245.983;  208.150; 1198.450;-0.02036
1029.97; 1220.983;  197.817; 1156.450;-0.02829
1030.51; 1182.983;  190.150; 1127.117;-0.02515
1031.06; 1149.650;  182.817; 1088.783;-0.02824
1031.61; 1106.317;  192.483; 1063.117;-0.02103
1032.15; 1085.650;  210.150; 1050.450;-0.01782
1032.70; 1063.650;  202.817; 1024.117;-0.02042
1033.24; 1043.317;  206.483; 1018.117;-0.01328
1033.79; 1044.650;  200.817; 1020.450;-0.01264
1034.33; 1012.983;  199.817; 1016.450; 0.00185
1034.88; 1013.983;  201.817; 1008.783;-0.00279
1035.42;  994.317;  202.817;  979.450;-0.00823
1035.97; 1000.317;  204.483;  950.450;-0.02810
1036.51; 1012.317;  206.483;  931.450;-0.04593
1037.06;  995.317;  200.817;  944.117;-0.02893
1037.60;  995.650;  207.150;  948.783;-0.02661
1038.14;  965.650;  204.150;  928.783;-0.02155
1038.69;  994.650;  222.150;  927.783;-0.03932
1039.23;  997.983;  234.483;  935.783;-0.03691
1039.78;  996.983;  235.150;  948.783;-0.02838
1040.32;  966.317;  224.483;  915.783;-0.03064
1040.87;  938.650;  208.483;  887.117;-0.03179
1041.41;  934.983;  198.150;  864.117;-0.04392
1041.96;  923.983;  200.817;  882.783;-0.02548
1042.50;  916.983;  197.817;  893.117;-0.01466
1043.04;  910.317;  213.817;  899.117;-0.00704
1043.59;  899.317;  217.150;  867.450;-0.02078
1044.13;  883.317;  212.483;  869.450;-0.00907
1044.68;  870.650;  205.817;  862.117;-0.00561
1045.22;  877.650;  199.150;  873.783;-0.00248
1045.76;  867.650;  201.817;  869.450; 0.00117
1046.31;  844.650;  193.483;  861.783; 0.01128
1046.85;  821.317;  200.483;  842.117; 0.01431
1047.40;  806.317;  202.483;  813.783; 0.00534
1047.94;  822.650;  215.150;  808.783;-0.01003
1048.48;  835.650;  211.150;  810.117;-0.01813
1049.03;  856.317;  214.483;  793.450;-0.04477
1049.57;  861.983;  229.150;  787.117;-0.05468
1050.11;  859.983;  222.817;  774.117;-0.06287
1050.66;  834.650;  218.483;  779.117;-0.04102
1051.20;  814.317;  206.483;  794.450;-0.01443
1051.74;  784.650;  200.817;  788.117; 0.00257
1052.29;  782.983;  200.150;  780.783;-0.00164
1052.83;  774.650;  199.150;  748.117;-0.02050
1053.37;  800.650;  224.817;  744.783;-0.04432
1053.92;  792.317;  234.150;  739.783;-0.04293
1054.46;  776.317;  236.483;  734.117;-0.03535
1055.00;  763.317;  231.483;  739.117;-0.02023
1055.55;  767.983;  230.817;  738.117;-0.02484
1056.09;  767.650;  223.817;  747.783;-0.01616
1056.63;  736.317;  215.817;  711.783;-0.02097
1057.17;  738.983;  216.483;  709.117;-0.02556
1057.72;  731.650;  225.150;  697.450;-0.03036
1058.26;  745.317;  223.483;  705.783;-0.03421
1058.80;  730.983;  229.817;  700.450;-0.02730
1059.35;  715.317;  230.483;  686.450;-0.02666
1059.89;  684.650;  230.150;  672.450;-0.01182
1060.43;  685.650;  227.817;  654.783;-0.03031
1060.97;  689.317;  223.817;  667.117;-0.02122
1061.52;  692.650;  231.150;  682.450;-0.00971
1062.06;  676.983;  231.483;  671.450;-0.00543
1062.60;  673.650;  236.483;  658.450;-0.01537
1063.14;  676.317;  232.483;  640.783;-0.03624
1063.69;  655.317;  216.483;  640.117;-0.01531
1064.23;  635.650;  208.817;  619.783;-0.01645
1064.77;  616.317;  200.483;  598.450;-0.01907
1065.31;  609.317;  201.817;  577.450;-0.03536
1065.85;  600.650;  206.483;  567.117;-0.03861
1066.40;  604.983;  205.150;  579.450;-0.02866
1066.94;  610.650;  217.817;  579.117;-0.03634
1067.48;  620.983;  209.150;  587.783;-0.03650
1068.02;  611.983;  233.817;  562.450;-0.06097
1068.56;  584.983;  216.817;  564.783;-0.02451
1069.10;  570.983;  212.817;  549.783;-0.02650
1069.65;  555.317;  195.817;  566.450; 0.01325
1070.19;  564.317;  208.817;  566.783; 0.00300
1070.73;  566.650;  223.817;  582.783; 0.01997
1071.27;  564.983;  215.817;  567.117; 0.00265
1071.81;  556.650;  207.150;  562.117; 0.00674
1072.35;  564.650;  201.817;  549.117;-0.01900
1072.90;  576.650;  197.150;  546.783;-0.03560
1073.44;  573.317;  202.817;  540.117;-0.04077
1073.98;  557.317;  206.150;  531.450;-0.03323
1074.52;  548.317;  224.483;  538.783;-0.01298
1075.06;  558.317;  218.483;  542.450;-0.02077
1075.60;  540.317;  207.483;  531.450;-0.01173
1076.14;  529.317;  204.817;  514.117;-0.02083
1076.68;  516.650;  207.150;  504.450;-0.01747
1077.22;  540.650;  225.817;  504.783;-0.05253
1077.76;  544.983;  214.817;  498.117;-0.06649
1078.31;  549.317;  229.817;  499.783;-0.07316
1078.85;  534.650;  226.483;  517.117;-0.02544
1079.39;  523.650;  243.817;  525.450; 0.00278
1079.93;  512.317;  237.817;  507.783;-0.00723
1080.47;  492.317;  227.483;  476.450;-0.02683
1081.01;  484.650;  216.150;  474.783;-0.01626
1081.55;  495.983;  208.483;  488.783;-0.01101
1082.09;  500.650;  205.817;  488.783;-0.01784
1082.63;  503.650;  210.150;  496.450;-0.01079
1083.17;  495.650;  221.150;  500.783; 0.00805
1083.71;  489.650;  228.817;  501.450; 0.01922
1084.25;  487.317;  224.483;  471.117;-0.02763
1084.79;  484.983;  214.483;  446.450;-0.06674
1085.33;  495.983;  202.817;  450.783;-0.07272
1085.87;  495.983;  199.483;  468.450;-0.04233
1086.41;  503.650;  214.483;  471.450;-0.05127
1086.95;  495.650;  222.150;  467.117;-0.04785
1087.49;  489.650;  225.817;  454.783;-0.06156
1088.03;  484.317;  216.817;  454.117;-0.05203
1088.57;  481.650;  219.817;  450.783;-0.05448
1089.11;  482.317;  222.150;  448.117;-0.06121
1089.65;  494.317;  233.150;  458.783;-0.06351
1090.19;  499.317;  238.483;  468.117;-0.05533
1090.73;  499.317;  240.483;  471.783;-0.04884
1091.27;  476.650;  238.817;  466.117;-0.01967
1091.81;  466.317;  238.483;  458.117;-0.01592
1092.35;  472.983;  247.483;  461.450;-0.02280
1092.89;  463.650;  232.150;  457.450;-0.01179
1093.43;  456.983;  223.817;  445.783;-0.02138
1093.97;  444.317;  210.150;  441.117;-0.00598
1094.51;  448.983;  208.483;  440.450;-0.01569
1095.04;  460.317;  218.483;  442.783;-0.03269
1095.58;  458.983;  238.817;  436.783;-0.04616
1096.12;  454.317;  242.817;  428.783;-0.05588
1096.66;  455.317;  239.817;  430.450;-0.05325
1097.20;  463.650;  235.817;  449.450;-0.02795
1097.74;  471.983;  246.817;  456.783;-0.03035
1098.28;  462.650;  235.817;  457.117;-0.01073
1098.82;  462.983;  230.483;  453.117;-0.01883
1099.36;  456.983;  228.150;  446.450;-0.02047
1099.89;  443.983;  230.150;  447.450; 0.00698

