
Integration time [ms]:   0.300
Averaging Nr. [scans]: 1
Smoothing Nr. [pixels]: 1
Data measured with spectrometer [name]: 1906252U1
Wave   ;Sample   ;Dark     ;Reference;Absorbance
[nm]   ;[counts] ;[counts] ;[counts] ;[A.U]

 161.30;  279.844;  271.207;  271.637; 0.00000
 161.90;  277.855;  265.524;  261.712; 0.00000
 162.51;  270.885;  259.038;  260.433;-0.92929
 163.11;  258.634;  265.693;  251.834; 0.00000
 163.71;  261.263;  276.696;  266.803; 0.00000
 164.31;  275.596;  294.270;  273.488; 0.00000
 164.91;  287.196;  288.393;  287.410; 0.00000
 165.52;  285.735;  277.299;  279.261;-0.63347
 166.12;  261.891;  271.979;  273.718; 5.00000
 166.72;  256.268;  272.971;  259.755; 0.00000
 167.32;  265.546;  271.656;  271.040; 0.00000
 167.93;  280.711;  261.266;  267.518;-0.49280
 168.53;  286.146;  254.112;  260.296;-0.71438
 169.13;  281.765;  264.427;  257.261; 0.00000
 169.73;  281.523;  271.677;  266.351; 0.00000
 170.33;  301.610;  291.614;  320.561; 0.46177
 170.94;  308.558;  317.756;  347.746; 5.00000
 171.54;  327.563;  335.278;  387.239; 5.00000
 172.14;  326.182;  338.926;  375.538; 5.00000
 172.74;  331.843;  324.358;  373.181; 0.81441
 173.34;  332.887;  319.589;  355.569; 0.43228
 173.95;  328.914;  309.596;  343.923; 0.24968
 174.55;  321.885;  318.289;  355.228; 1.01161
 175.15;  316.811;  320.689;  367.155; 5.00000
 175.75;  332.531;  322.370;  380.195; 0.75519
 176.35;  347.344;  332.415;  382.036; 0.52162
 176.95;  357.849;  327.740;  392.907; 0.33532
 177.56;  343.960;  327.608;  398.355; 0.63615
 178.16;  344.253;  316.738;  399.298; 0.47720
 178.76;  344.464;  316.306;  398.487; 0.46517
 179.36;  350.675;  310.874;  401.343; 0.35660
 179.96;  348.492;  304.800;  395.813; 0.31869
 180.56;  360.306;  308.938;  392.969; 0.21375
 181.17;  369.758;  318.009;  403.448; 0.21776
 181.77;  378.480;  318.897;  417.181; 0.21736
 182.37;  367.415;  306.653;  404.111; 0.20519
 182.97;  386.426;  319.309;  413.789; 0.14851
 183.57;  402.590;  323.525;  427.944; 0.12080
 184.17;  433.093;  336.736;  473.104; 0.15083
 184.78;  422.251;  316.624;  484.587; 0.20144
 185.38;  426.156;  315.012;  504.833; 0.23246
 185.98;  438.605;  315.783;  504.638; 0.18685
 186.58;  471.407;  316.598;  510.449; 0.09767
 187.18;  490.628;  313.002;  491.678; 0.00256
 187.78;  503.348;  324.256;  526.070; 0.05187
 188.38;  502.773;  331.840;  541.159; 0.08798
 188.98;  490.813;  337.804;  574.199; 0.18892
 189.59;  501.500;  332.575;  567.529; 0.14329
 190.19;  500.047;  326.870;  580.708; 0.16607
 190.79;  511.264;  326.914;  573.939; 0.12710
 191.39;  483.925;  317.159;  564.285; 0.17081
 191.99;  479.022;  322.498;  545.363; 0.15346
 192.59;  481.599;  317.307;  539.929; 0.13195
 193.19;  469.359;  313.765;  525.712; 0.13423
 193.79;  473.586;  325.164;  530.280; 0.14050
 194.39;  451.329;  328.250;  517.658; 0.18722
 195.00;  456.504;  327.216;  511.139; 0.15308
 195.60;  449.416;  305.566;  480.732; 0.08554
 196.20;  451.807;  304.088;  469.473; 0.04906
 196.80;  437.332;  305.278;  453.989; 0.05159
 197.40;  409.849;  313.686;  455.186; 0.16775
 198.00;  385.439;  320.693;  452.457; 0.30858
 198.60;  380.940;  317.270;  442.943; 0.29530
 199.20;  363.527;  312.435;  427.513; 0.35264
 199.80;  374.789;  303.957;  416.753; 0.20206
 200.40;  349.233;  299.492;  396.868; 0.29173
 201.00;  346.780;  293.841;  371.434; 0.16605
 201.60;  321.742;  292.845;  340.403; 0.21637
 202.21;  331.243;  298.995;  352.240; 0.21778
 202.81;  337.904;  303.760;  367.883; 0.27370
 203.41;  336.294;  301.801;  377.921; 0.34377
 204.01;  328.317;  296.447;  373.611; 0.38403
 204.61;  327.182;  287.965;  374.799; 0.34522
 205.21;  329.732;  280.528;  391.328; 0.35254
 205.81;  341.648;  276.000;  394.567; 0.25674
 206.41;  339.737;  281.190;  389.667; 0.26783
 207.01;  337.233;  291.585;  373.516; 0.25403
 207.61;  314.593;  290.832;  349.221; 0.39047
 208.21;  310.469;  294.007;  340.088; 0.44703
 208.81;  313.429;  285.376;  350.048; 0.36274
 209.41;  313.304;  292.971;  355.294; 0.48645
 210.01;  315.152;  286.985;  361.835; 0.42445
 210.61;  321.315;  290.534;  351.990; 0.30027
 211.21;  332.233;  293.399;  356.219; 0.20888
 211.81;  332.970;  300.157;  352.258; 0.20080
 212.41;  321.223;  301.896;  344.513; 0.34341
 213.01;  327.308;  296.332;  351.625; 0.25165
 213.61;  324.350;  285.263;  357.339; 0.26576
 214.21;  321.107;  282.939;  368.411; 0.35012
 214.81;  302.102;  278.704;  361.387; 0.54825
 215.41;  287.364;  282.466;  362.645; 1.21402
 216.01;  288.239;  278.247;  362.189; 0.92433
 216.61;  296.163;  287.920;  357.792; 0.92826
 217.21;  305.081;  290.599;  357.391; 0.66390
 217.81;  300.165;  297.221;  367.800; 1.37979
 218.41;  308.450;  301.628;  379.081; 1.05514
 219.01;  310.858;  307.801;  388.505; 1.42164
 219.61;  317.927;  301.739;  384.906; 0.71077
 220.21;  309.884;  297.568;  378.507; 0.81767
 220.81;  315.766;  283.737;  372.713; 0.44373
 221.41;  341.743;  284.091;  376.024; 0.20265
 222.01;  338.442;  280.426;  372.049; 0.19846
 222.61;  337.494;  298.953;  367.451; 0.24976
 223.21;  308.776;  301.813;  357.103; 0.89986
 223.81;  312.692;  301.952;  360.676; 0.73778
 224.41;  304.349;  281.875;  343.618; 0.43891
 225.01;  305.665;  269.317;  340.250; 0.29037
 225.61;  310.425;  274.108;  341.033; 0.26548
 226.21;  300.951;  273.112;  349.918; 0.44074
 226.81;  298.201;  286.490;  349.175; 0.72859
 227.41;  302.309;  284.059;  344.282; 0.51848
 228.01;  324.286;  302.172;  351.241; 0.34614
 228.61;  342.880;  306.727;  360.474; 0.17220
 229.21;  335.438;  303.825;  362.700; 0.27006
 229.81;  329.846;  308.998;  372.791; 0.48571
 230.41;  321.783;  299.055;  383.396; 0.56947
 231.01;  325.654;  300.808;  405.942; 0.62649
 231.61;  311.471;  287.307;  401.095; 0.67293
 232.21;  320.218;  300.328;  383.489; 0.62129
 232.81;  310.343;  296.307;  370.928; 0.72562
 233.41;  317.078;  302.578;  372.995; 0.68631
 234.00;  308.648;  298.240;  379.918; 0.89473
 234.60;  306.341;  290.487;  363.623; 0.66397
 235.20;  327.642;  295.152;  359.264; 0.29518
 235.80;  329.147;  295.330;  365.432; 0.31659
 236.40;  341.103;  302.765;  379.044; 0.29877
 237.00;  324.534;  303.584;  384.824; 0.58858
 237.60;  323.007;  294.000;  377.651; 0.45997
 238.20;  318.241;  295.121;  389.214; 0.60957
 238.80;  309.054;  274.112;  389.668; 0.51945
 239.40;  308.486;  279.177;  403.402; 0.62721
 240.00;  317.055;  284.599;  402.640; 0.56073
 240.59;  321.364;  298.133;  401.312; 0.64751
 241.19;  318.454;  297.989;  399.745; 0.69656
 241.79;  320.096;  288.710;  384.715; 0.48556
 242.39;  329.300;  292.222;  383.909; 0.39320
 242.99;  329.170;  286.642;  375.121; 0.31817
 243.59;  317.454;  289.230;  388.763; 0.54734
 244.19;  309.265;  286.160;  385.560; 0.63368
 244.79;  330.717;  287.511;  384.652; 0.35186
 245.39;  331.290;  287.293;  395.554; 0.39105
 245.98;  329.854;  273.053;  391.453; 0.31900
 246.58;  300.341;  274.487;  389.290; 0.64741
 247.18;  318.399;  285.342;  384.364; 0.47647
 247.78;  332.145;  295.696;  398.758; 0.45141
 248.38;  360.890;  288.656;  421.162; 0.26349
 248.98;  349.016;  277.356;  419.988; 0.29894
 249.58;  341.366;  265.673;  430.671; 0.33842
 250.17;  330.231;  275.285;  426.842; 0.44064
 250.77;  328.353;  283.143;  431.967; 0.51744
 251.37;  318.786;  286.929;  425.089; 0.63718
 251.97;  318.854;  270.293;  429.805; 0.51651
 252.57;  326.617;  265.298;  436.882; 0.44688
 253.17;  344.555;  272.929;  449.172; 0.39104
 253.77;  337.673;  284.186;  466.282; 0.53205
 254.36;  339.859;  295.474;  468.774; 0.59156
 254.96;  326.981;  295.333;  480.567; 0.76737
 255.56;  328.383;  288.604;  484.301; 0.69193
 256.16;  323.274;  278.462;  506.509; 0.70663
 256.76;  332.206;  277.524;  496.109; 0.60178
 257.36;  336.375;  276.735;  508.603; 0.58970
 257.95;  337.160;  264.992;  503.713; 0.51955
 258.55;  333.187;  264.239;  518.084; 0.56605
 259.15;  339.897;  260.564;  510.454; 0.49830
 259.75;  348.438;  269.345;  523.998; 0.50781
 260.35;  346.037;  267.461;  538.318; 0.53745
 260.94;  341.437;  268.819;  539.764; 0.57183
 261.54;  337.789;  275.530;  547.771; 0.64075
 262.14;  339.816;  279.723;  553.422; 0.65845
 262.74;  348.255;  296.084;  592.169; 0.75399
 263.34;  345.682;  285.302;  604.600; 0.72330
 263.93;  349.293;  271.414;  619.201; 0.64989
 264.53;  357.208;  269.158;  628.783; 0.61112
 265.13;  348.301;  270.950;  628.566; 0.66495
 265.73;  345.212;  275.426;  648.466; 0.72799
 266.33;  348.827;  278.566;  678.397; 0.75516
 266.92;  349.453;  275.029;  689.673; 0.74596
 267.52;  360.501;  279.954;  705.726; 0.72313
 268.12;  345.023;  273.264;  717.281; 0.79152
 268.72;  349.898;  281.951;  749.175; 0.83736
 269.31;  358.888;  293.596;  782.505; 0.87436
 269.91;  353.418;  296.813;  783.686; 0.93457
 270.51;  360.177;  298.884;  823.747; 0.93263
 271.11;  354.798;  296.018;  844.685; 0.97008
 271.70;  356.114;  281.274;  877.686; 0.90141
 272.30;  353.654;  270.568;  887.924; 0.87101
 272.90;  364.484;  264.784;  909.412; 0.81061
 273.50;  373.952;  274.785;  916.521; 0.81099
 274.09;  378.619;  285.359;  947.539; 0.85128
 274.69;  373.410;  293.425;  961.690; 0.92194
 275.29;  373.774;  297.126; 1011.041; 0.96915
 275.89;  376.939;  301.162; 1057.168; 0.99899
 276.48;  382.836;  306.441; 1108.365; 1.02107
 277.08;  399.818;  303.217; 1149.330; 0.94244
 277.68;  413.403;  300.562; 1156.928; 0.88019
 278.28;  413.524;  297.934; 1188.748; 0.88687
 278.87;  409.985;  305.120; 1219.213; 0.94036
 279.47;  407.144;  316.402; 1279.019; 1.02564
 280.07;  418.000;  311.564; 1306.537; 0.97072
 280.66;  433.261;  305.599; 1329.806; 0.90433
 281.26;  451.402;  299.502; 1356.605; 0.84256
 281.86;  454.933;  299.353; 1408.460; 0.85302
 282.46;  464.464;  289.111; 1464.667; 0.82633
 283.05;  479.988;  270.001; 1525.842; 0.77674
 283.65;  496.396;  269.267; 1577.248; 0.76033
 284.25;  495.791;  276.537; 1628.707; 0.79008
 284.84;  498.208;  297.639; 1660.819; 0.83229
 285.44;  529.105;  304.585; 1722.349; 0.80035
 286.04;  550.392;  306.626; 1767.304; 0.77758
 286.63;  567.280;  299.604; 1827.551; 0.75650
 287.23;  566.652;  285.934; 1878.582; 0.75385
 287.83;  578.730;  285.987; 1956.635; 0.75640
 288.42;  597.244;  282.947; 2012.456; 0.74058
 289.02;  615.465;  281.018; 2081.351; 0.73103
 289.62;  639.444;  274.153; 2105.373; 0.70010
 290.21;  655.617;  278.965; 2173.882; 0.70165
 290.81;  685.930;  296.139; 2171.832; 0.68233
 291.41;  706.373;  301.675; 2217.279; 0.67517
 292.00;  713.684;  287.695; 2273.257; 0.66849
 292.60;  726.687;  266.816; 2355.570; 0.65725
 293.20;  741.392;  269.053; 2441.953; 0.66279
 293.79;  779.282;  275.331; 2498.541; 0.64459
 294.39;  819.852;  284.326; 2544.463; 0.62535
 294.99;  853.835;  280.435; 2588.095; 0.60471
 295.58;  887.728;  284.687; 2619.961; 0.58799
 296.18;  893.008;  271.100; 2672.236; 0.58669
 296.78;  930.962;  267.474; 2741.524; 0.57158
 297.37;  959.339;  256.039; 2819.912; 0.56176
 297.97; 1008.872;  255.858; 2927.442; 0.54997
 298.57; 1052.650;  262.727; 2989.557; 0.53807
 299.16; 1105.183;  278.359; 3083.789; 0.53059
 299.76; 1120.092;  281.775; 3176.366; 0.53818
 300.35; 1134.779;  281.214; 3269.362; 0.54417
 300.95; 1155.536;  278.404; 3324.462; 0.54067
 301.55; 1199.890;  287.229; 3346.846; 0.52536
 302.14; 1216.062;  278.314; 3431.366; 0.52665
 302.74; 1260.561;  277.164; 3537.862; 0.52058
 303.33; 1306.620;  277.506; 3665.575; 0.51749
 303.93; 1374.315;  284.053; 3763.621; 0.50399
 304.53; 1400.761;  290.889; 3809.743; 0.50113
 305.12; 1424.443;  285.666; 3889.067; 0.50027
 305.72; 1471.130;  304.345; 3962.749; 0.49630
 306.31; 1494.530;  292.556; 4062.826; 0.49648
 306.91; 1537.273;  290.122; 4183.574; 0.49442
 307.51; 1584.443;  280.000; 4278.734; 0.48650
 308.10; 1667.762;  295.710; 4394.048; 0.47524
 308.70; 1721.763;  291.190; 4468.751; 0.46541
 309.29; 1771.803;  287.634; 4547.826; 0.45795
 309.89; 1807.679;  264.902; 4638.675; 0.45255
 310.48; 1887.469;  273.673; 4739.754; 0.44208
 311.08; 1930.827;  268.620; 4876.118; 0.44278
 311.68; 1983.062;  273.221; 4959.384; 0.43786
 312.27; 2024.300;  278.703; 5074.278; 0.43890
 312.87; 2073.553;  271.869; 5225.848; 0.43928
 313.46; 2121.382;  276.691; 5385.013; 0.44235
 314.06; 2169.597;  276.193; 5529.885; 0.44322
 314.65; 2238.616;  282.238; 5632.559; 0.43693
 315.25; 2308.991;  283.262; 5774.255; 0.43307
 315.85; 2363.945;  277.637; 5914.876; 0.43169
 316.44; 2407.341;  287.913; 6071.938; 0.43601
 317.04; 2493.734;  295.255; 6216.984; 0.43033
 317.63; 2582.739;  310.823; 6400.341; 0.42819
 318.23; 2659.997;  298.737; 6546.296; 0.42257
 318.82; 2681.267;  293.221; 6674.883; 0.42689
 319.42; 2742.275;  273.276; 6781.545; 0.42094
 320.01; 2819.347;  280.055; 6929.646; 0.41808
 320.61; 2868.050;  290.511; 7164.652; 0.42601
 321.20; 2940.385;  285.758; 7272.939; 0.42030
 321.80; 3003.802;  292.860; 7497.718; 0.42451
 322.39; 3132.906;  275.154; 7636.540; 0.41094
 322.99; 3201.576;  275.755; 7857.556; 0.41352
 323.58; 3292.920;  286.597; 7977.531; 0.40794
 324.18; 3356.090;  287.901; 8124.673; 0.40726
 324.77; 3416.745;  292.485; 8318.013; 0.40973
 325.37; 3461.229;  278.984; 8442.167; 0.40913
 325.96; 3518.035;  276.253; 8588.958; 0.40896
 326.56; 3594.501;  298.768; 8771.095; 0.41005
 327.15; 3654.839;  300.036; 8947.778; 0.41124
 327.75; 3723.260;  300.925; 9129.536; 0.41157
 328.34; 3788.918;  272.723; 9291.838; 0.40909
 328.94; 3848.670;  266.072; 9447.905; 0.40873
 329.53; 3957.642;  277.765; 9658.876; 0.40642
 330.13; 4027.873;  293.098; 9872.460; 0.40907
 330.72; 4095.936;  297.428;10112.576; 0.41228
 331.32; 4152.750;  296.807;10347.750; 0.41608
 331.91; 4269.086;  286.021;10578.045; 0.41228
 332.51; 4389.518;  290.846;10832.428; 0.41026
 333.10; 4489.448;  280.941;11112.686; 0.41057
 333.69; 4556.290;  268.720;11343.870; 0.41214
 334.29; 4624.394;  259.020;11372.294; 0.40582
 334.88; 4636.674;  263.526;11404.218; 0.40612
 335.48; 4626.617;  274.151;11347.513; 0.40554
 336.07; 4685.780;  277.361;11521.065; 0.40663
 336.67; 4693.799;  271.793;11561.792; 0.40707
 337.26; 4781.744;  270.478;11724.744; 0.40467
 337.86; 4797.115;  274.661;11795.073; 0.40609
 338.45; 4867.293;  285.081;11996.201; 0.40752
 339.04; 4917.810;  280.248;12122.714; 0.40715
 339.64; 4985.572;  279.247;12324.855; 0.40815
 340.23; 5068.573;  276.541;12444.594; 0.40470
 340.83; 5123.643;  283.446;12579.002; 0.40489
 341.42; 5193.140;  284.034;12728.085; 0.40396
 342.02; 5223.789;  280.810;12860.717; 0.40569
 342.61; 5261.837;  285.029;12994.842; 0.40719
 343.20; 5262.992;  280.703;13173.363; 0.41291
 343.80; 5339.176;  275.024;13326.514; 0.41115
 344.39; 5407.795;  277.525;13574.777; 0.41362
 344.99; 5516.934;  284.701;13698.586; 0.40887
 345.58; 5600.348;  281.629;13941.331; 0.40963
 346.17; 5663.307;  272.425;14086.941; 0.40868
 346.77; 5757.549;  263.601;14425.499; 0.41124
 347.36; 5857.469;  267.766;14640.403; 0.41015
 347.96; 5937.812;  271.456;14918.073; 0.41243
 348.55; 5977.134;  272.039;15018.413; 0.41242
 349.14; 6058.976;  269.152;15148.264; 0.40991
 349.74; 6173.366;  282.193;15379.635; 0.40870
 350.33; 6257.356;  292.264;15619.281; 0.40984
 350.92; 6304.812;  292.029;15990.758; 0.41679
 351.52; 6384.088;  276.988;16197.719; 0.41613
 352.11; 6489.067;  277.642;16449.038; 0.41556
 352.70; 6601.831;  293.221;16652.467; 0.41383
 353.30; 6695.734;  299.069;16923.354; 0.41479
 353.89; 6764.864;  289.556;17199.826; 0.41689
 354.49; 6807.483;  295.537;17471.125; 0.42120
 355.08; 6852.606;  303.789;17648.240; 0.42300
 355.67; 6958.582;  306.509;17850.877; 0.42118
 356.27; 7044.463;  292.678;18013.082; 0.41906
 356.86; 7116.429;  288.376;18230.048; 0.41957
 357.45; 7190.711;  297.756;18507.331; 0.42189
 358.05; 7322.677;  297.214;18684.613; 0.41785
 358.64; 7411.357;  292.504;18894.298; 0.41714
 359.23; 7473.880;  289.300;19081.825; 0.41758
 359.83; 7531.779;  289.121;19433.380; 0.42214
 360.42; 7604.652;  293.174;19722.600; 0.42445
 361.01; 7648.888;  287.355;19981.487; 0.42737
 361.61; 7719.632;  287.502;20183.522; 0.42765
 362.20; 7839.832;  294.987;20496.718; 0.42774
 362.79; 7965.713;  302.910;20634.303; 0.42378
 363.38; 8043.570;  301.613;20815.514; 0.42320
 363.98; 8083.126;  289.171;20943.715; 0.42326
 364.57; 8161.562;  277.744;21176.149; 0.42338
 365.16; 8250.879;  288.573;21351.502; 0.42248
 365.76; 8332.648;  293.720;21537.287; 0.42203
 366.35; 8424.932;  294.920;21731.542; 0.42107
 366.94; 8446.210;  286.459;21913.791; 0.42333
 367.53; 8495.212;  286.426;22067.466; 0.42380
 368.13; 8453.884;  291.994;22246.489; 0.42973
 368.72; 8548.681;  285.482;22413.295; 0.42779
 369.31; 8606.397;  292.281;22597.374; 0.42859
 369.91; 8714.218;  283.382;22746.877; 0.42561
 370.50; 8743.107;  291.699;22820.059; 0.42580
 371.09; 8754.330;  278.017;22946.909; 0.42722
 371.68; 8753.752;  286.967;23106.324; 0.43058
 372.28; 8913.998;  294.984;23340.584; 0.42713
 372.87; 9019.242;  297.367;23443.502; 0.42387
 373.46; 9156.688;  297.723;23614.255; 0.42028
 374.05; 9160.941;  287.889;23758.158; 0.42245
 374.65; 9238.598;  290.440;23950.173; 0.42228
 375.24; 9296.772;  272.918;24146.349; 0.42252
 375.83; 9327.448;  275.848;24331.370; 0.42449
 376.42; 9459.608;  273.516;24515.563; 0.42144
 377.02; 9505.212;  293.907;24527.502; 0.42010
 377.61; 9610.721;  288.112;24762.668; 0.41918
 378.20; 9638.191;  297.747;24944.118; 0.42139
 378.79; 9788.964;  297.015;25086.217; 0.41691
 379.38; 9911.539;  282.191;25204.109; 0.41298
 379.98;10024.918;  267.243;25344.469; 0.40993
 380.57;10071.823;  272.112;25606.751; 0.41250
 381.16;10103.839;  291.609;25727.129; 0.41367
 381.75;10147.528;  289.589;25767.151; 0.41237
 382.35;10240.300;  283.703;25937.612; 0.41104
 382.94;10304.051;  271.231;26182.039; 0.41206
 383.53;10427.778;  279.541;26558.760; 0.41322
 384.12;10518.667;  269.432;26865.627; 0.41413
 384.71;10681.401;  284.069;27028.687; 0.41031
 385.31;10802.235;  287.699;27353.893; 0.41064
 385.90;10877.098;  299.731;27598.110; 0.41176
 386.49;10970.336;  283.306;27919.987; 0.41263
 387.08;11116.968;  296.763;28085.602; 0.40963
 387.67;11327.622;  302.047;28384.267; 0.40603
 388.26;11444.094;  312.463;28670.094; 0.40611
 388.86;11490.411;  297.866;29041.131; 0.40961
 389.45;11579.867;  285.685;29324.329; 0.41012
 390.04;11722.666;  279.860;29566.863; 0.40814
 390.63;11829.054;  284.795;29878.048; 0.40883
 391.22;11931.304;  294.422;30097.179; 0.40842
 391.81;12055.654;  303.408;30368.117; 0.40794
 392.41;12213.863;  324.211;30517.642; 0.40474
 393.00;12457.125;  349.022;30747.606; 0.39978
 393.59;12642.986;  379.676;31111.212; 0.39898
 394.18;12807.472;  399.780;31505.223; 0.39915
 394.77;12931.542;  433.703;31930.599; 0.40143
 395.36;13050.244;  473.557;32244.356; 0.40246
 395.95;13231.805;  524.323;32561.017; 0.40159
 396.55;13358.476;  566.236;32856.406; 0.40212
 397.14;13543.820;  594.577;33298.717; 0.40236
 397.73;13767.891;  601.786;33627.642; 0.39940
 398.32;13966.323;  612.294;34204.404; 0.40062
 398.91;14157.494;  621.039;34614.988; 0.39990
 399.50;14380.061;  632.059;35200.379; 0.40044
 400.09;14581.379;  605.452;35675.306; 0.39955
 400.68;14948.680;  582.293;36366.134; 0.39634
 401.27;15255.673;  548.561;37014.694; 0.39436
 401.87;15689.364;  525.771;37604.957; 0.38833
 402.46;16003.666;  501.053;38119.893; 0.38500
 403.05;16303.552;  484.389;38675.942; 0.38278
 403.64;16466.448;  490.521;39240.769; 0.38481
 404.23;16639.152;  484.797;39841.080; 0.38672
 404.82;16766.785;  502.588;40438.695; 0.39013
 405.41;17068.611;  491.629;41140.816; 0.38955
 406.00;17297.204;  497.890;41752.976; 0.39019
 406.59;17542.503;  479.966;42383.807; 0.39021
 407.18;17808.849;  482.149;42943.385; 0.38928
 407.77;18133.174;  466.520;43500.038; 0.38665
 408.37;18519.767;  484.641;43973.019; 0.38225
 408.96;18755.911;  491.806;44465.898; 0.38160
 409.55;18988.309;  504.476;44970.283; 0.38123
 410.14;19168.887;  481.626;45459.452; 0.38145
 410.73;19431.247;  490.299;45905.805; 0.37980
 411.32;19561.207;  492.855;46441.730; 0.38196
 411.91;19839.435;  505.687;47060.216; 0.38165
 412.50;19995.223;  480.732;47624.639; 0.38307
 413.09;20291.045;  484.505;48110.411; 0.38103
 413.68;20494.591;  482.467;48573.257; 0.38077
 414.27;20595.252;  487.472;48936.919; 0.38192
 414.86;20806.989;  462.470;49236.309; 0.37974
 415.45;20909.135;  452.555;49687.411; 0.38144
 416.04;21150.501;  462.743;50083.734; 0.37995
 416.63;21335.379;  468.551;50542.275; 0.38015
 417.22;21538.466;  461.867;50754.683; 0.37771
 417.81;21667.281;  462.159;51068.477; 0.37776
 418.40;21740.161;  476.694;51393.675; 0.37923
 418.99;21849.052;  477.832;51737.830; 0.37995
 419.58;21957.001;  462.218;51969.382; 0.37953
 420.17;22038.363;  452.952;52248.392; 0.38013
 420.76;22062.494;  458.593;52499.836; 0.38182
 421.35;22265.759;  472.988;53005.769; 0.38212
 421.94;22249.498;  474.287;53203.501; 0.38409
 422.53;22349.322;  469.601;53402.299; 0.38368
 423.12;22326.547;  471.552;53493.823; 0.38491
 423.71;22453.624;  463.366;53670.857; 0.38374
 424.30;22519.293;  471.573;53819.883; 0.38376
 424.89;22481.747;  477.611;53888.037; 0.38512
 425.48;22402.120;  477.854;53974.356; 0.38740
 426.07;22285.852;  465.438;53940.695; 0.38929
 426.66;22262.698;  460.097;54040.507; 0.39050
 427.25;22303.661;  453.014;53995.096; 0.38923
 427.84;22178.977;  450.549;53912.043; 0.39101
 428.43;22154.049;  452.848;53711.442; 0.38991
 429.02;22004.834;  457.772;53797.552; 0.39366
 429.61;21996.763;  448.720;53826.107; 0.39395
 430.20;21825.456;  425.820;53758.443; 0.39659
 430.79;21691.923;  437.001;53531.580; 0.39759
 431.38;21589.909;  442.471;53315.543; 0.39798
 431.97;21501.834;  451.391;53001.434; 0.39731
 432.55;21389.743;  445.807;52690.011; 0.39698
 433.14;21256.145;  441.412;52704.411; 0.39982
 433.73;21078.836;  432.971;52655.054; 0.40302
 434.32;20953.757;  424.624;52606.263; 0.40515
 434.91;20837.567;  423.161;52233.737; 0.40448
 435.50;20666.041;  418.064;51971.869; 0.40588
 436.09;20509.174;  418.432;51687.970; 0.40686
 436.68;20280.204;  422.559;51624.303; 0.41136
 437.27;20095.388;  439.214;51661.122; 0.41596
 437.86;19862.860;  433.576;51508.561; 0.41975
 438.45;19647.287;  436.794;51330.326; 0.42312
 439.04;19445.264;  419.148;51043.637; 0.42501
 439.62;19297.972;  412.025;51000.963; 0.42792
 440.21;19169.419;  413.441;50885.373; 0.42991
 440.80;19050.248;  430.263;51024.538; 0.43412
 441.39;18920.852;  449.560;51081.161; 0.43792
 441.98;18798.010;  447.874;51020.625; 0.44028
 442.57;18694.329;  436.530;50797.219; 0.44064
 443.16;18638.392;  425.660;50702.578; 0.44099
 443.75;18574.092;  431.481;50788.909; 0.44336
 444.33;18427.235;  435.018;50969.383; 0.44850
 444.92;18204.197;  440.355;50892.685; 0.45334
 445.51;18111.219;  417.614;50850.986; 0.45490
 446.10;18017.161;  410.612;51056.876; 0.45887
 446.69;17920.521;  404.712;51275.545; 0.46304
 447.28;17709.051;  420.929;51457.726; 0.47014
 447.87;17638.386;  412.657;51329.383; 0.47068
 448.45;17526.104;  413.036;51412.748; 0.47424
 449.04;17380.684;  390.874;51445.980; 0.47785
 449.63;17162.678;  386.972;51646.289; 0.48509
 450.22;17093.865;  381.501;51835.467; 0.48838
 450.81;16983.617;  386.090;52100.884; 0.49357
 451.40;16868.887;  391.666;52058.120; 0.49632
 451.98;16754.540;  398.229;52052.065; 0.49942
 452.57;16671.285;  403.856;52211.469; 0.50307
 453.16;16637.171;  401.626;52273.023; 0.50446
 453.75;16400.201;  391.994;52359.708; 0.51139
 454.34;16274.869;  388.814;52215.013; 0.51353
 454.93;16151.913;  395.232;52494.699; 0.51937
 455.51;16012.452;  391.805;52615.216; 0.52417
 456.10;15927.369;  402.670;52907.445; 0.52918
 456.69;15805.314;  396.116;53041.712; 0.53358
 457.28;15882.141;  403.304;53288.203; 0.53359
 457.87;15766.285;  395.902;53216.666; 0.53612
 458.45;15648.365;  396.108;53304.691; 0.54019
 459.04;15461.762;  388.965;53401.373; 0.54618
 459.63;15373.562;  395.666;53676.141; 0.55112
 460.22;15275.567;  396.420;53639.128; 0.55368
 460.80;15230.232;  400.600;53692.823; 0.55553
 461.39;15191.627;  392.483;53895.895; 0.55814
 461.98;15211.560;  393.792;54364.115; 0.56137
 462.57;15227.776;  398.874;54782.941; 0.56436
 463.16;15189.473;  397.668;55197.607; 0.56876
 463.74;15136.743;  387.726;55673.212; 0.57385
 464.33;15113.627;  376.102;56213.777; 0.57850
 464.92;15102.902;  370.427;56547.398; 0.58128
 465.51;15126.892;  357.831;56911.710; 0.58311
 466.09;15155.122;  358.204;57352.888; 0.58566
 466.68;15144.716;  361.518;57898.436; 0.59018
 467.27;15118.255;  372.331;58292.638; 0.59416
 467.86;15042.685;  368.243;58560.733; 0.59831
 468.44;15041.550;  363.094;58919.922; 0.60090
 469.03;15055.118;  361.882;59322.152; 0.60344
 469.62;15137.371;  367.807;59788.037; 0.60457
 470.20;15200.366;  365.300;60231.337; 0.60589
 470.79;15241.224;  374.762;60677.863; 0.60813
 471.38;15161.199;  358.816;61146.166; 0.61348
 471.97;15205.778;  359.020;61564.389; 0.61516
 472.55;15233.078;  350.111;61933.679; 0.61678
 473.14;15303.012;  362.234;62406.602; 0.61833
 473.73;15256.986;  355.473;62971.535; 0.62346
 474.31;15284.942;  347.428;63489.444; 0.62604
 474.90;15266.107;  350.797;63899.238; 0.62947
 475.49;15301.439;  352.737;64160.914; 0.63027
 476.07;15224.489;  357.870;64473.326; 0.63475
 476.66;15283.703;  347.892;64752.829; 0.63469
 477.25;15302.251;  340.581;65000.332; 0.63565
 477.84;15316.788;  352.761;65155.193; 0.63654
 478.42;15298.887;  344.733;65155.945; 0.63689
 479.01;15255.278;  344.681;65156.001; 0.63816
 479.60;15174.131;  330.210;65156.511; 0.64020
 480.18;15071.241;  334.265;65158.257; 0.64333
 480.77;14926.153;  342.135;65159.480; 0.64781
 481.35;14984.711;  347.900;65159.373; 0.64621
 481.94;14935.190;  344.738;65159.188; 0.64760
 482.53;14983.271;  335.059;65159.923; 0.64596
 483.11;14922.404;  332.000;65160.709; 0.64770
 483.70;14906.433;  318.067;65161.719; 0.64786
 484.29;14938.733;  316.585;65163.324; 0.64688
 484.87;14880.640;  306.461;65164.542; 0.64838
 485.46;14861.366;  315.710;65164.272; 0.64917
 486.05;14634.989;  319.958;65162.920; 0.65607
 486.63;14574.648;  321.237;65162.258; 0.65793
 487.22;14501.977;  317.302;65162.909; 0.66006
 487.81;14512.463;  323.288;65164.368; 0.65989
 488.39;14346.238;  331.856;65164.474; 0.66522
 488.98;14182.151;  337.207;65163.733; 0.67046
 489.56;14004.230;  317.228;65164.794; 0.67559
 490.15;13880.502;  310.772;65166.371; 0.67938
 490.74;13762.938;  302.771;65167.454; 0.68296
 491.32;13630.961;  305.937;65168.774; 0.68733
 491.91;13525.606;  316.111;64974.057; 0.68974
 492.49;13354.856;  317.823;64712.314; 0.69367
 493.08;13199.993;  332.939;64167.133; 0.69557
 493.67;12973.742;  325.500;63724.219; 0.70005
 494.25;12834.715;  343.920;63105.848; 0.70111
 494.84;12678.631;  335.724;62474.087; 0.70194
 495.42;12594.970;  338.386;61959.759; 0.70136
 496.01;12433.202;  319.873;61399.648; 0.70263
 496.59;12279.343;  310.443;60754.114; 0.70330
 497.18;12053.715;  311.106;60078.479; 0.70670
 497.77;11876.895;  311.733;59331.632; 0.70785
 498.35;11732.407;  326.966;58841.796; 0.71015
 498.94;11575.486;  324.499;58030.218; 0.71003
 499.52;11542.465;  324.914;57567.186; 0.70782
 500.11;11439.571;  311.275;56906.600; 0.70635
 500.69;11395.211;  304.601;56449.246; 0.70435
 501.28;11232.009;  315.149;55764.708; 0.70580
 501.86;11142.462;  317.653;55155.772; 0.70466
 502.45;11029.762;  338.264;54632.693; 0.70572
 503.03;10907.052;  328.939;54106.656; 0.70619
 503.62;10772.791;  339.385;53665.090; 0.70851
 504.20;10752.345;  326.215;53123.968; 0.70449
 504.79;10743.541;  326.766;52666.148; 0.70110
 505.37;10747.574;  326.582;52358.543; 0.69836
 505.96;10687.782;  332.269;51859.105; 0.69686
 506.55;10705.540;  327.706;51491.158; 0.69285
 507.13;10776.173;  315.837;51254.709; 0.68750
 507.72;10956.548;  312.954;51138.387; 0.67899
 508.30;11099.436;  319.265;50944.634; 0.67174
 508.89;11171.289;  316.460;50626.145; 0.66603
 509.47;11224.877;  308.593;50383.056; 0.66154
 510.05;11269.020;  311.037;50305.214; 0.65919
 510.64;11434.335;  312.992;50205.541; 0.65188
 511.22;11603.600;  326.961;50242.492; 0.64606
 511.81;11796.284;  323.186;50282.527; 0.63894
 512.39;12001.366;  329.747;50266.280; 0.63129
 512.98;12154.545;  310.647;50213.110; 0.62463
 513.56;12367.419;  306.947;50200.284; 0.61668
 514.15;12557.664;  297.484;50225.841; 0.60985
 514.73;12744.493;  293.306;50310.339; 0.60391
 515.32;12879.529;  298.909;50412.714; 0.60026
 515.90;13026.298;  306.909;50529.464; 0.59643
 516.49;13289.123;  321.223;50576.262; 0.58831
 517.07;13522.347;  323.415;50501.804; 0.57998
 517.66;13796.509;  325.663;50468.951; 0.57082
 518.24;13937.332;  330.491;50581.443; 0.56739
 518.82;14222.667;  322.791;50433.118; 0.55692
 519.41;14396.814;  321.449;50483.238; 0.55191
 519.99;14793.887;  304.901;50520.942; 0.53980
 520.58;15086.470;  313.039;50964.514; 0.53511
 521.16;15448.781;  316.114;51139.212; 0.52615
 521.75;15647.029;  315.579;51354.849; 0.52232
 522.33;15968.376;  314.722;51552.832; 0.51498
 522.91;16222.701;  303.280;51724.449; 0.50921
 523.50;16581.682;  304.661;51708.091; 0.49942
 524.08;16803.126;  292.957;51816.521; 0.49425
 524.67;17197.110;  296.699;52029.160; 0.48587
 525.25;17461.925;  294.898;52244.306; 0.48089
 525.83;17867.299;  300.195;52281.679; 0.47115
 526.42;18133.950;  299.604;52255.985; 0.46438
 527.00;18490.630;  297.414;52315.968; 0.45625
 527.59;18741.738;  293.742;52194.390; 0.44922
 528.17;19069.816;  296.702;52169.461; 0.44140
 528.75;19302.142;  314.407;52237.781; 0.43689
 529.34;19494.229;  317.963;52410.206; 0.43401
 529.92;19652.049;  322.096;52599.701; 0.43208
 530.50;19911.113;  308.099;52577.086; 0.42592
 531.09;20222.951;  310.277;52580.588; 0.41913
 531.67;20514.418;  319.699;52493.409; 0.41221
 532.25;20703.976;  331.224;52474.618; 0.40815
 532.84;20802.136;  319.265;52286.406; 0.40434
 533.42;21024.191;  303.579;52069.121; 0.39764
 534.00;21207.010;  296.379;51800.283; 0.39147
 534.59;21437.410;  306.923;51692.027; 0.38593
 535.17;21608.692;  307.396;51484.292; 0.38067
 535.75;21722.783;  311.833;51399.345; 0.37768
 536.34;21917.078;  327.170;51106.314; 0.37143
 536.92;22023.431;  323.362;50970.357; 0.36809
 537.50;22245.787;  320.767;50555.361; 0.36006
 538.09;22383.042;  304.234;50224.272; 0.35430
 538.67;22360.107;  307.957;49849.711; 0.35152
 539.25;22500.953;  292.004;49517.578; 0.34566
 539.84;22516.844;  298.382;49195.084; 0.34257
 540.42;22763.222;  287.620;48747.408; 0.33367
 541.00;22759.754;  304.712;48328.615; 0.33014
 541.59;22907.937;  293.453;47996.146; 0.32416
 542.17;22856.119;  303.713;47681.974; 0.32239
 542.75;22983.251;  301.687;47449.085; 0.31778
 543.33;22973.251;  321.928;47035.436; 0.31435
 543.92;23182.598;  322.791;46647.473; 0.30674
 544.50;23212.135;  319.637;46212.001; 0.30205
 545.08;23340.220;  303.653;45900.067; 0.29651
 545.67;23429.353;  304.594;45544.519; 0.29144
 546.25;23527.100;  306.855;45243.598; 0.28673
 546.83;23630.064;  305.919;44881.223; 0.28129
 547.41;23659.138;  307.185;44485.963; 0.27689
 548.00;23742.921;  304.048;44073.416; 0.27123
 548.58;23719.534;  293.554;43651.340; 0.26737
 549.16;23669.166;  273.252;43462.973; 0.26624
 549.74;23724.534;  276.221;43125.006; 0.26183
 550.33;23848.909;  287.338;42789.017; 0.25620
 550.91;23995.694;  287.502;42328.145; 0.24877
 551.49;24011.584;  275.114;42084.067; 0.24585
 552.07;24075.197;  281.527;41894.675; 0.24277
 552.66;24172.793;  296.715;41696.915; 0.23904
 553.24;24288.020;  301.874;41407.799; 0.23394
 553.82;24396.299;  287.046;41262.389; 0.23034
 554.40;24481.566;  287.502;41018.645; 0.22622
 554.98;24669.092;  286.839;40927.197; 0.22188
 555.57;24799.650;  295.511;40724.442; 0.21745
 556.15;24924.073;  295.794;40729.857; 0.21531
 556.73;24976.756;  289.872;40584.856; 0.21278
 557.31;25128.690;  280.087;40487.094; 0.20900
 557.89;25330.173;  267.680;40402.230; 0.20449
 558.48;25533.423;  270.725;40389.487; 0.20087
 559.06;25700.581;  269.279;40492.969; 0.19911
 559.64;25892.297;  288.172;40421.363; 0.19519
 560.22;26076.414;  308.276;40298.501; 0.19087
 560.80;26231.695;  311.749;40155.433; 0.18673
 561.39;26379.432;  300.174;40123.139; 0.18384
 561.97;26557.777;  304.256;40118.465; 0.18085
 562.55;26819.243;  305.864;40159.584; 0.17700
 563.13;27098.811;  307.652;40244.814; 0.17339
 563.71;27312.638;  295.320;40343.674; 0.17094
 564.29;27441.438;  296.315;40286.513; 0.16826
 564.88;27499.975;  280.495;40218.374; 0.16651
 565.46;27684.405;  277.260;40267.767; 0.16409
 566.04;27734.215;  269.464;40338.574; 0.16403
 566.62;27934.078;  292.162;40520.457; 0.16296
 567.20;28102.297;  292.265;40647.678; 0.16170
 567.78;28469.701;  300.170;40851.754; 0.15823
 568.36;28828.367;  300.837;41002.754; 0.15435
 568.94;29120.483;  296.460;41004.189; 0.14992
 569.53;29382.826;  295.816;41099.192; 0.14700
 570.11;29449.466;  283.902;41113.488; 0.14610
 570.69;29608.237;  278.869;41248.245; 0.14516
 571.27;29743.588;  279.854;41227.262; 0.14294
 571.85;29962.885;  279.584;41295.220; 0.14044
 572.43;30167.913;  299.078;41479.213; 0.13947
 573.01;30316.250;  288.199;41566.526; 0.13819
 573.59;30563.041;  284.931;41522.011; 0.13416
 574.17;30714.632;  270.419;41423.650; 0.13090
 574.76;31014.045;  278.826;41529.098; 0.12779
 575.34;31230.276;  274.920;41725.997; 0.12680
 575.92;31244.141;  271.771;41808.186; 0.12745
 576.50;31338.449;  265.398;41828.507; 0.12632
 577.08;31418.327;  261.206;41866.048; 0.12559
 577.66;31826.340;  250.776;41875.013; 0.12000
 578.24;31984.509;  252.747;41879.155; 0.11787
 578.82;32111.260;  257.942;41897.583; 0.11635
 579.40;32043.553;  266.978;41903.210; 0.11736
 579.98;32134.306;  273.567;41841.961; 0.11551
 580.56;32320.658;  281.852;41853.319; 0.11312
 581.14;32610.171;  291.659;41917.834; 0.10992
 581.72;32848.921;  280.280;42082.244; 0.10840
 582.30;32983.166;  273.151;42074.467; 0.10651
 582.88;33183.650;  274.650;42152.288; 0.10467
 583.46;33402.496;  282.363;42189.821; 0.10220
 584.04;33590.441;  282.956;42171.457; 0.09955
 584.62;33646.451;  265.125;42197.830; 0.09905
 585.21;33735.066;  267.265;42241.428; 0.09835
 585.79;33813.664;  273.754;42392.009; 0.09891
 586.37;33930.296;  277.118;42415.309; 0.09765
 586.95;34038.492;  275.522;42455.787; 0.09667
 587.53;34298.227;  269.979;42469.819; 0.09347
 588.11;34429.648;  278.442;42585.262; 0.09300
 588.69;34545.226;  282.733;42557.865; 0.09127
 589.27;34566.498;  283.424;42506.477; 0.09047
 589.85;34820.637;  276.026;42443.602; 0.08660
 590.43;35015.646;  271.715;42599.939; 0.08575
 591.01;35145.881;  278.076;42722.853; 0.08540
 591.59;35317.302;  288.299;42936.945; 0.08548
 592.16;35300.347;  287.924;42891.657; 0.08523
 592.74;35403.422;  291.617;42886.045; 0.08390
 593.32;35372.692;  293.193;42739.948; 0.08279
 593.90;35555.389;  297.895;42708.966; 0.08023
 594.48;35583.116;  288.777;42603.037; 0.07878
 595.06;35714.199;  285.245;42684.475; 0.07800
 595.64;35803.955;  272.769;42709.242; 0.07713
 596.22;35878.522;  276.890;42757.472; 0.07672
 596.80;35840.351;  268.138;42505.619; 0.07459
 597.38;35896.635;  264.245;42457.558; 0.07340
 597.96;36011.981;  262.869;42299.911; 0.07037
 598.54;36035.141;  268.057;42320.734; 0.07031
 599.12;35948.160;  272.769;42174.074; 0.06986
 599.70;35825.033;  272.156;42133.628; 0.07094
 600.28;35824.939;  269.178;41999.881; 0.06955
 600.86;35880.646;  273.568;41898.236; 0.06781
 601.44;35944.728;  279.130;41816.989; 0.06619
 602.02;35785.389;  273.135;41601.984; 0.06588
 602.59;35740.252;  269.019;41487.164; 0.06521
 603.17;35713.391;  254.435;41427.991; 0.06489
 603.75;35841.740;  264.600;41407.036; 0.06312
 604.33;35844.066;  268.544;41269.041; 0.06164
 604.91;35838.666;  272.574;41056.648; 0.05945
 605.49;35817.765;  271.546;40985.067; 0.05895
 606.07;35748.280;  254.900;40828.877; 0.05810
 606.65;35671.440;  260.422;40696.701; 0.05763
 607.23;35521.846;  264.441;40448.820; 0.05681
 607.80;35351.391;  277.156;40221.379; 0.05647
 608.38;35236.187;  277.256;40025.464; 0.05576
 608.96;35087.739;  285.786;39921.000; 0.05648
 609.54;34752.429;  288.246;39743.725; 0.05874
 610.12;34621.079;  283.928;39528.375; 0.05801
 610.70;34458.021;  273.259;39095.265; 0.05525
 611.28;34448.160;  259.195;38813.390; 0.05219
 611.85;34136.644;  265.841;38433.913; 0.05187
 612.43;33931.336;  260.695;38304.961; 0.05304
 613.01;33785.545;  263.202;38019.161; 0.05165
 613.59;33625.174;  249.299;37795.112; 0.05113
 614.17;33359.462;  240.914;37668.085; 0.05312
 614.75;33124.578;  222.778;37521.205; 0.05447
 615.32;32968.831;  209.277;37291.775; 0.05383
 615.90;32866.612;  219.080;36866.572; 0.05019
 616.48;32662.018;  232.952;36658.988; 0.05048
 617.06;32410.193;  255.157;36308.488; 0.04970
 617.64;32204.511;  246.140;36072.812; 0.04962
 618.22;32036.877;  241.049;35666.522; 0.04695
 618.79;31828.298;  228.178;35515.632; 0.04793
 619.37;31580.679;  227.104;35180.352; 0.04720
 619.95;31331.974;  231.387;34894.600; 0.04710
 620.53;30959.212;  218.869;34491.494; 0.04724
 621.11;30544.647;  206.529;34156.975; 0.04886
 621.68;30392.700;  201.116;33920.700; 0.04800
 622.26;30406.805;  202.843;33803.106; 0.04628
 622.84;30432.079;  212.594;33643.042; 0.04386
 623.42;30193.770;  214.208;33340.072; 0.04334
 623.99;29925.856;  232.130;33128.823; 0.04449
 624.57;29713.900;  239.695;32874.211; 0.04424
 625.15;29471.294;  249.244;32723.283; 0.04583
 625.73;29282.790;  235.066;32483.448; 0.04540
 626.30;29132.475;  228.444;32290.122; 0.04503
 626.88;29083.298;  228.031;32032.596; 0.04226
 627.46;28928.795;  230.061;31766.787; 0.04095
 628.04;28764.529;  242.419;31549.234; 0.04046
 628.61;28518.735;  241.899;31249.103; 0.04003
 629.19;28317.751;  244.829;31015.066; 0.03984
 629.77;28074.450;  231.831;30736.758; 0.03966
 630.35;27868.188;  234.217;30562.869; 0.04041
 630.92;27742.889;  232.092;30375.921; 0.03970
 631.50;27622.421;  220.757;30199.145; 0.03903
 632.08;27433.280;  206.521;29949.680; 0.03839
 632.66;27143.074;  196.801;29744.460; 0.04002
 633.23;26840.366;  216.776;29426.430; 0.04026
 633.81;26622.966;  225.566;29138.020; 0.03952
 634.39;26506.398;  220.298;28844.754; 0.03701
 634.96;26395.775;  221.956;28624.791; 0.03549
 635.54;26211.173;  216.680;28606.896; 0.03829
 636.12;25984.206;  214.735;28334.976; 0.03791
 636.69;25762.838;  204.526;28222.591; 0.03991
 637.27;25643.444;  199.403;27913.834; 0.03712
 637.85;25518.682;  217.219;27696.062; 0.03585
 638.42;25307.607;  206.286;27392.989; 0.03466
 639.00;25093.048;  223.367;27259.457; 0.03627
 639.58;24871.848;  209.789;26981.612; 0.03565
 640.15;24719.410;  222.891;26790.445; 0.03525
 640.73;24444.193;  204.119;26492.226; 0.03523
 641.31;24326.976;  216.013;26471.006; 0.03700
 641.88;24219.426;  210.908;26285.787; 0.03586
 642.46;24222.208;  226.803;26132.901; 0.03327
 643.04;24092.325;  214.697;25934.349; 0.03227
 643.61;23878.774;  223.925;25817.463; 0.03421
 644.19;23700.224;  209.153;25659.577; 0.03479
 644.77;23491.673;  224.048;25468.358; 0.03541
 645.34;23447.123;  211.943;25293.805; 0.03321
 645.92;23327.572;  214.504;25070.586; 0.03158
 646.49;23289.022;  218.399;24938.033; 0.02998
 647.07;23106.471;  220.293;24745.814; 0.03004
 647.65;22926.920;  224.188;24564.928; 0.03026
 648.22;22605.370;  218.082;24391.042; 0.03333
 648.80;22581.486;  227.310;24368.156; 0.03339
 649.37;22533.602;  227.872;24339.937; 0.03382
 649.95;22621.052;  227.433;24242.051; 0.03035
 650.53;22415.501;  209.328;24121.165; 0.03214
 651.10;22311.617;  214.222;24054.279; 0.03297
 651.68;22236.400;  211.450;24020.060; 0.03382
 652.25;22256.516;  221.012;23899.174; 0.03122
 652.83;22223.633;  211.573;23700.955; 0.02821
 653.41;22006.749;  208.468;23524.069; 0.02922
 653.98;21936.198;  212.362;23340.850; 0.02721
 654.56;21822.648;  211.590;23307.630; 0.02886
 655.13;21816.764;  208.818;23285.744; 0.02856
 655.71;21756.213;  207.379;23284.525; 0.02976
 656.28;21664.329;  194.941;23185.639; 0.02973
 656.86;21603.112;  188.169;22962.753; 0.02673
 657.43;21536.562;  190.397;22872.868; 0.02637
 658.01;21535.011;  212.958;22793.315; 0.02490
 658.58;21528.127;  207.519;22876.096; 0.02662
 659.16;21412.910;  211.747;22798.876; 0.02750
 659.74;21345.693;  196.309;22777.324; 0.02845
 660.31;21251.809;  204.203;22714.438; 0.02918
 660.89;21275.592;  198.098;22687.885; 0.02817
 661.46;21186.375;  206.659;22545.999; 0.02727
 662.04;21200.824;  208.554;22516.780; 0.02641
 662.61;21205.941;  207.448;22500.894; 0.02599
 663.19;21297.057;  206.676;22626.342; 0.02654
 663.76;21317.173;  209.571;22600.456; 0.02563
 664.34;21245.289;  211.132;22526.237; 0.02567
 664.91;21230.405;  214.027;22413.684; 0.02379
 665.49;21196.855;  216.922;22441.798; 0.02504
 666.06;21210.637;  213.150;22513.246; 0.02614
 666.64;21229.420;  212.044;22555.693; 0.02658
 667.21;21292.203;  216.606;22500.140; 0.02420
 667.79;21321.319;  204.167;22400.588; 0.02165
 668.36;21246.102;  201.395;22402.702; 0.02324
 668.93;21234.552;  202.290;22421.149; 0.02384
 669.51;21123.334;  198.184;22426.263; 0.02623
 670.08;21116.117;  192.412;22387.044; 0.02561
 670.66;21012.567;  189.307;22273.825; 0.02554
 671.23;21109.683;  213.201;22361.606; 0.02527
 671.81;21195.799;  219.763;22403.720; 0.02432
 672.38;21334.915;  224.324;22501.167; 0.02335
 672.96;21297.365;  213.552;22510.281; 0.02429
 673.53;21272.481;  213.113;22482.395; 0.02426
 674.10;21279.930;  213.008;22524.843; 0.02493
 674.68;21410.380;  228.236;22505.290; 0.02189
 675.25;21417.829;  221.131;22417.404; 0.02001
 675.83;21362.279;  215.692;22370.185; 0.02022
 676.40;21255.395;  203.253;22300.299; 0.02104
 676.98;21147.178;  209.148;22323.413; 0.02374
 677.55;21163.294;  210.043;22281.527; 0.02258
 678.12;21136.410;  223.937;22260.975; 0.02275
 678.70;21126.193;  221.832;22236.089; 0.02247
 679.27;21057.976;  229.060;22163.870; 0.02247
 679.85;20970.425;  216.621;22124.984; 0.02351
 680.42;21023.875;  216.516;22133.431; 0.02256
 680.99;20960.658;  192.744;22099.212; 0.02318
 681.57;20961.774;  198.305;22028.659; 0.02176
 682.14;20836.890;  205.866;21848.773; 0.02079
 682.71;20838.339;  210.761;21795.554; 0.01970
 683.29;20715.122;  200.656;21706.668; 0.02050
 683.86;20658.238;  185.884;21546.116; 0.01844
 684.43;20415.688;  198.112;21362.230; 0.01987
 685.01;20388.471;  197.006;21197.011; 0.01705
 685.58;20346.587;  206.234;21272.458; 0.01952
 686.16;20442.370;  206.462;21269.239; 0.01739
 686.73;20411.486;  215.023;21397.686; 0.02071
 687.30;20362.935;  207.585;21388.467; 0.02155
 687.88;20330.051;  217.479;21321.914; 0.02091
 688.45;20277.834;  210.707;21118.362; 0.01782
 689.02;20311.950;  213.602;21022.142; 0.01508
 689.60;20158.400;  190.497;20889.257; 0.01561
 690.17;20135.516;  199.391;20926.704; 0.01690
 690.74;20004.299;  189.619;20805.485; 0.01721
 691.31;19977.748;  204.181;20824.932; 0.01822
 691.89;19855.531;  191.742;20754.713; 0.01942
 692.46;19859.647;  212.637;20700.494; 0.01820
 693.03;19811.430;  229.198;20611.941; 0.01740
 693.61;19693.213;  234.759;20426.722; 0.01607
 694.18;19515.996;  237.320;20424.503; 0.02000
 694.75;19479.779;  206.882;20414.950; 0.02058
 695.32;19524.561;  208.110;20458.064; 0.02050
 695.90;19479.011;  203.004;20312.512; 0.01838
 696.47;19379.794;  203.899;20210.626; 0.01842
 697.04;19321.243;  214.460;20060.073; 0.01648
 697.62;19342.693;  213.355;20039.187; 0.01553
 698.19;19331.142;  229.250;19951.301; 0.01388
 698.76;19253.592;  211.144;19960.082; 0.01582
 699.33;19148.041;  210.706;19883.196; 0.01654
 699.91;18992.157;  196.600;19795.977; 0.01819
 700.48;18893.607;  206.162;19674.091; 0.01777
 701.05;18833.056;  208.056;19645.538; 0.01854
 701.62;18826.506;  232.951;19536.652; 0.01628
 702.20;18721.289;  235.179;19463.767; 0.01710
 702.77;18620.738;  232.073;19314.881; 0.01609
 703.34;18535.521;  217.301;19303.995; 0.01785
 703.91;18485.304;  214.196;19161.775; 0.01579
 704.48;18381.420;  220.091;19054.223; 0.01580
 705.06;18351.536;  212.652;18964.004; 0.01442
 705.63;18245.319;  221.213;18940.118; 0.01643
 706.20;18279.435;  214.441;18934.565; 0.01547
 706.77;18203.551;  221.336;18864.679; 0.01568
 707.34;18283.001;  215.564;18821.793; 0.01276
 707.92;18070.784;  205.792;18710.907; 0.01529
 708.49;17997.900;  193.353;18575.022; 0.01385
 709.06;17863.016;  193.248;18466.136; 0.01458
 709.63;17942.465;  194.476;18431.916; 0.01181
 710.20;17820.915;  191.037;18446.697; 0.01515
 710.77;17818.698;  187.932;18338.145; 0.01261
 711.35;17839.814;  185.826;18305.592; 0.01131
 711.92;17982.263;  205.721;18271.706; 0.00701
 712.49;17960.046;  207.616;18372.487; 0.00997
 713.06;17899.162;  215.844;18405.934; 0.01227
 713.63;17841.612;  209.405;18498.382; 0.01588
 714.20;17943.061;  212.300;18556.829; 0.01478
 714.78;17965.844;  209.528;18487.277; 0.01257
 715.35;17993.960;  205.756;18407.724; 0.00999
 715.92;17923.410;  207.317;18351.838; 0.01038
 716.49;17861.859;  222.545;18343.285; 0.01169
 717.06;17791.975;  226.106;18273.400; 0.01174
 717.63;17763.425;  217.334;18198.847; 0.01065
 718.20;17794.874;  210.895;18175.294; 0.00930
 718.77;17755.657;  224.790;18170.075; 0.01015
 719.35;17705.773;  226.351;18153.189; 0.01098
 719.92;17607.556;  211.913;18038.303; 0.01062
 720.49;17556.672;  197.474;17879.084; 0.00799
 721.06;17513.122;  177.369;17774.532; 0.00650
 721.63;17507.571;  190.930;17799.979; 0.00727
 722.20;17476.021;  195.825;17861.426; 0.00958
 722.77;17477.470;  203.386;17825.540; 0.00866
 723.34;17448.253;  196.947;17821.321; 0.00929
 723.91;17463.369;  205.509;17813.102; 0.00871
 724.48;17394.819;  222.070;17777.883; 0.00958
 725.05;17322.268;  212.964;17617.997; 0.00744
 725.62;17165.051;  195.192;17490.778; 0.00826
 726.20;17105.834;  186.754;17461.892; 0.00904
 726.77;17086.283;  192.982;17446.339; 0.00916
 727.34;17132.066;  199.210;17412.787; 0.00714
 727.91;17183.849;  209.104;17361.567; 0.00452
 728.48;17169.298;  214.999;17354.015; 0.00471
 729.05;17205.081;  215.560;17353.795; 0.00378
 729.62;17199.197;  192.788;17320.910; 0.00310
 730.19;17187.980;  185.683;17297.024; 0.00278
 730.76;17138.430;  188.578;17324.138; 0.00473
 731.33;17106.546;  211.472;17306.252; 0.00510
 731.90;16998.662;  215.034;17274.033; 0.00707
 732.47;16953.778;  206.261;17242.147; 0.00741
 733.04;16912.894;  191.156;17245.594; 0.00856
 733.61;16982.011;  168.051;17256.042; 0.00702
 734.18;16891.460;  173.945;17191.156; 0.00772
 734.75;16803.576;  184.507;17077.270; 0.00709
 735.32;16716.692;  211.401;16955.384; 0.00624
 735.89;16699.808;  203.963;16851.831; 0.00398
 736.46;16633.925;  212.191;16734.945; 0.00266
 737.03;16513.374;  203.085;16674.393; 0.00427
 737.60;16335.490;  203.647;16580.840; 0.00656
 738.17;16219.273;  173.208;16558.621; 0.00909
 738.74;16132.723;  184.103;16523.735; 0.01052
 739.31;16078.505;  185.331;16430.849; 0.00952
 739.88;15992.955;  195.225;16300.630; 0.00838
 740.45;15971.404;  176.120;16234.411; 0.00717
 741.02;16027.854;  174.348;16293.858; 0.00723
 741.59;16043.970;  171.909;16337.305; 0.00795
 742.15;16064.420;  177.804;16325.753; 0.00709
 742.72;16043.869;  185.365;16376.867; 0.00902
 743.29;16035.319;  187.593;16351.648; 0.00858
 743.86;16025.435;  195.154;16298.095; 0.00742
 744.43;16024.884;  197.049;16220.543; 0.00534
 745.00;16050.334;  201.277;16240.323; 0.00518
 745.57;16076.116;  209.172;16261.771; 0.00505
 746.14;16095.899;  201.733;16198.552; 0.00280
 746.71;16077.015;  208.294;16179.666; 0.00280
 747.28;16031.465;  196.522;16170.446; 0.00380
 747.85;15993.581;  172.417;16124.227; 0.00357
 748.42;16020.031;  173.645;16103.675; 0.00229
 748.98;16000.813;  177.206;16075.455; 0.00204
 749.55;15975.930;  197.767;16011.569; 0.00098
 750.12;15818.379;  197.662;16015.683; 0.00545
 750.69;15792.829;  204.890;15955.131; 0.00450
 751.26;15741.611;  216.118;15910.245; 0.00469
 751.83;15812.061;  206.013;15821.026; 0.00025
 752.40;15766.177;  204.907;15769.807; 0.00010
 752.97;15757.960;  192.802;15780.587; 0.00063
 753.53;15626.743;  195.697;15773.035; 0.00410
 754.10;15617.859;  187.925;15706.815; 0.00250
 754.67;15553.975;  185.486;15666.263; 0.00316
 755.24;15531.091;  192.714;15616.044; 0.00240
 755.81;15407.874;  200.608;15583.491; 0.00499
 756.38;15318.323;  223.503;15510.272; 0.00549
 756.94;15283.773;  215.064;15482.386; 0.00569
 757.51;15299.222;  204.292;15502.833; 0.00582
 758.08;15299.005;  196.520;15545.281; 0.00702
 758.65;15259.455;  213.748;15443.728; 0.00529
 759.22;15150.571;  220.643;15351.176; 0.00580
 759.79;15032.020;  205.538;15180.623; 0.00433
 760.35;14893.137;  191.432;15130.404; 0.00695
 760.92;14720.586;  201.994;14987.518; 0.00791
 761.49;14571.702;  208.555;14849.965; 0.00833
 762.06;14486.818;  211.783;14641.079; 0.00467
 762.63;14424.934;  201.011;14500.527; 0.00230
 763.19;14358.717;  203.239;14469.641; 0.00339
 763.76;14267.833;  215.133;14423.422; 0.00478
 764.33;14100.616;  219.695;14294.202; 0.00601
 764.90;13935.066;  218.589;14107.650; 0.00543
 765.46;13731.515;  197.817;13914.097; 0.00582
 766.03;13588.631;  196.045;13749.878; 0.00520
 766.60;13481.081;  197.940;13624.992; 0.00468
 767.17;13426.864;  205.501;13465.773; 0.00128
 767.73;13350.647;  207.063;13413.220; 0.00206
 768.30;13169.096;  206.624;13205.001; 0.00120
 768.87;12961.546;  215.185;13045.782; 0.00286
 769.44;12766.662;  213.413;12836.229; 0.00240
 770.00;12642.778;  215.975;12686.677; 0.00153
 770.57;12479.561;  216.536;12525.791; 0.00163
 771.14;12261.343;  213.430;12350.238; 0.00319
 771.71;11943.793;  198.325;12122.686; 0.00656
 772.27;11696.242;  206.220;11935.800; 0.00896
 772.84;11569.692;  209.448;11715.914; 0.00555
 773.41;11488.808;  213.676;11595.695; 0.00410
 773.97;11369.924;  205.904;11440.809; 0.00275
 774.54;11215.374;  213.798;11314.923; 0.00391
 775.11;11124.823;  232.360;11227.370; 0.00407
 775.67;11012.273;  228.588;11074.818; 0.00251
 776.24;10887.056;  222.482;10902.265; 0.00062
 776.81;10717.838;  220.377;10665.712;-0.00216
 777.38;10565.955;  208.272;10484.160;-0.00344
 777.94;10415.404;  214.166;10350.941;-0.00275
 778.51;10285.854;  199.728;10214.721;-0.00307
 779.08;10180.636;  210.622;10137.835;-0.00187
 779.64;10052.086;  201.517;10058.283; 0.00027
 780.21; 9896.869;  202.745; 9970.064; 0.00327
 780.78; 9839.651;  211.639; 9870.178; 0.00137
 781.34; 9815.101;  212.534; 9787.625;-0.00124
 781.91; 9774.550;  225.762; 9703.406;-0.00325
 782.47; 9663.667;  227.990; 9633.520;-0.00139
 783.04; 9517.449;  238.551; 9482.634;-0.00163
 783.61; 9461.566;  245.779; 9385.415;-0.00360
 784.17; 9366.682;  246.674; 9320.196;-0.00222
 784.74; 9320.465;  236.569; 9240.310;-0.00385
 785.31; 9185.581;  244.797; 9256.090; 0.00341
 785.87; 9177.697;  248.691; 9137.538;-0.00196
 786.44; 9147.146;  252.252; 9126.319;-0.00102
 787.00; 9177.929;  239.480; 9065.766;-0.00548
 787.57; 9079.712;  222.375; 9005.880;-0.00364
 788.14; 9051.495;  242.936; 8941.661;-0.00545
 788.70; 9040.944;  252.831; 8828.442;-0.01063
 789.27; 9019.727;  261.392; 8880.222;-0.00697
 789.83; 8933.843;  247.620; 8836.003;-0.00492
 790.40; 8876.626;  230.182; 8838.117;-0.00194
 790.96; 8819.076;  235.076; 8799.898;-0.00097
 791.53; 8792.525;  229.304; 8766.679;-0.00131
 792.10; 8773.308;  224.866; 8777.126; 0.00019
 792.66; 8811.757;  219.094; 8720.574;-0.00463
 793.23; 8823.874;  214.988; 8733.688;-0.00457
 793.79; 8794.656;  216.216; 8675.468;-0.00608
 794.36; 8725.439;  210.777; 8660.249;-0.00334
 794.92; 8672.555;  219.339; 8606.363;-0.00341
 795.49; 8583.672;  232.233; 8532.811;-0.00265
 796.05; 8508.454;  243.461; 8505.258;-0.00017
 796.62; 8466.570;  248.023; 8527.372; 0.00320
 797.19; 8392.687;  237.917; 8507.820; 0.00609
 797.75; 8426.469;  226.145; 8453.600; 0.00143
 798.32; 8430.919;  218.373; 8393.714;-0.00197
 798.88; 8453.368;  222.601; 8383.829;-0.00368
 799.45; 8466.485;  224.829; 8436.276;-0.00159
 800.01; 8543.601;  220.391; 8517.723;-0.00135
 800.58; 8738.717;  215.952; 8677.504;-0.00313
 801.14; 8930.833;  222.513; 8916.952;-0.00069
 801.71; 9204.616;  218.074; 9117.399;-0.00424
 802.27; 9469.065;  206.969; 9310.180;-0.00751
 802.84; 9763.848;  188.864; 9480.294;-0.01306
 803.40; 9966.298;  179.758; 9723.075;-0.01093
 803.96;10216.414;  198.986;10006.189;-0.00921
 804.53;10519.863;  210.548;10273.303;-0.01051
 805.09;10855.313;  208.442;10576.417;-0.01153
 805.66;11211.429;  200.670;10926.198;-0.01140
 806.22;11530.878;  172.898;11264.978;-0.01029
 806.79;11899.995;  185.793;11622.426;-0.01041
 807.35;12239.111;  182.354;11886.873;-0.01288
 807.92;12544.894;  214.582;12161.654;-0.01371
 808.48;12825.676;  221.810;12436.768;-0.01361
 809.05;13142.126;  217.705;12708.882;-0.01481
 809.61;13433.242;  213.933;13054.330;-0.01263
 810.17;13714.358;  218.827;13355.110;-0.01172
 810.74;13958.808;  231.055;13671.891;-0.00917
 811.30;14293.257;  226.617;13899.672;-0.01232
 811.87;14613.373;  214.511;14212.453;-0.01226
 812.43;14949.490;  214.406;14571.233;-0.01129
 812.99;15253.606;  216.967;14881.014;-0.01090
 813.56;15566.722;  221.862;15191.462;-0.01075
 814.12;16004.171;  221.090;15523.909;-0.01342
 814.69;16387.621;  216.318;15866.356;-0.01423
 815.25;16769.070;  210.213;16143.804;-0.01672
 815.81;16953.186;  200.774;16302.251;-0.01721
 816.38;17250.303;  196.335;16642.699;-0.01576
 816.94;17545.752;  193.897;16882.479;-0.01693
 817.51;17858.868;  192.791;17283.594;-0.01438
 818.07;18066.318;  201.019;17504.374;-0.01388
 818.63;18270.434;  202.247;17804.155;-0.01135
 819.20;18534.217;  201.808;18033.936;-0.01202
 819.76;18774.666;  209.370;18216.050;-0.01327
 820.32;19027.782;  216.598;18394.831;-0.01486
 820.89;19182.899;  218.159;18583.278;-0.01395
 821.45;19394.348;  193.387;18775.726;-0.01422
 822.01;19467.131;  176.615;18965.173;-0.01145
 822.58;19458.247;  180.843;19065.620;-0.00894
 823.14;19469.696;  194.404;19233.068;-0.00536
 823.70;19541.813;  202.299;19352.182;-0.00428
 824.27;19715.595;  193.194;19462.963;-0.00566
 824.83;19816.712;  215.421;19467.743;-0.00780
 825.39;19802.494;  215.649;19374.524;-0.00959
 825.95;19764.277;  221.211;19316.972;-0.01006
 826.52;19571.060;  191.105;19274.752;-0.00669
 827.08;19363.843;  189.000;19152.200;-0.00482
 827.64;19104.959;  175.895;18949.314;-0.00359
 828.21;18861.075;  175.123;18660.095;-0.00470
 828.77;18634.191;  181.351;18397.542;-0.00561
 829.33;18312.308;  183.579;18029.323;-0.00683
 829.89;17968.757;  181.807;17638.104;-0.00815
 830.46;17629.207;  185.701;17297.218;-0.00835
 831.02;17305.989;  190.596;16895.332;-0.01055
 831.58;16970.772;  201.157;16540.779;-0.01128
 832.15;16490.555;  185.052;16128.893;-0.00974
 832.71;16010.338;  188.280;15811.341;-0.00550
 833.27;15483.787;  178.841;15353.455;-0.00371
 833.83;15056.237;  169.736;14940.569;-0.00339
 834.39;14582.686;  164.297;14394.016;-0.00572
 834.96;14162.136;  162.192;13925.464;-0.00740
 835.52;13700.919;  187.086;13474.578;-0.00734
 836.08;13303.035;  188.981;13047.025;-0.00856
 836.64;12855.818;  194.876;12619.473;-0.00818
 837.21;12414.267;  198.770;12148.920;-0.00954
 837.77;11958.050;  198.332;11759.367;-0.00740
 838.33;11513.499;  206.893;11447.148;-0.00256
 838.89;11154.616;  203.121;11001.596;-0.00611
 839.45;10786.398;  205.349;10589.710;-0.00815
 840.02;10403.848;  209.910;10134.490;-0.01163
 840.58; 9983.964;  201.805; 9836.938;-0.00658
 841.14; 9529.747;  224.699; 9457.052;-0.00341
 841.70; 9143.530;  220.594; 9049.833;-0.00458
 842.26; 8713.312;  218.155; 8613.280;-0.00514
 842.82; 8344.095;  209.050; 8233.061;-0.00597
 843.39; 7944.211;  200.278; 7802.175;-0.00804
 843.95; 7621.994;  213.839; 7446.956;-0.01038
 844.51; 7254.110;  213.734; 7076.737;-0.01108
 845.07; 6913.227;  223.295; 6751.184;-0.01065
 845.63; 6594.009;  228.523; 6447.965;-0.01008
 846.19; 6367.459;  213.418; 6205.745;-0.01156
 846.75; 6189.575;  212.646; 6042.860;-0.01079
 847.32; 5991.691;  191.874; 5828.307;-0.01241
 847.88; 5774.807;  198.435; 5647.088;-0.01006
 848.44; 5563.257;  182.996; 5418.202;-0.01187
 849.00; 5370.040;  188.224; 5206.649;-0.01391
 849.56; 5279.156;  183.119; 5035.763;-0.02125
 850.12; 5156.939;  176.680; 4913.211;-0.02179
 850.68; 5039.721;  181.908; 4877.325;-0.01477
 851.24; 4928.504;  184.136; 4806.439;-0.01132
 851.80; 4890.620;  199.364; 4790.220;-0.00940
 852.37; 4922.070;  196.592; 4731.334;-0.01789
 852.93; 4865.853;  204.820; 4729.448;-0.01290
 853.49; 4832.636;  212.715; 4650.895;-0.01743
 854.05; 4756.418;  223.943; 4597.676;-0.01548
 854.61; 4739.535;  224.171; 4520.790;-0.02157
 855.17; 4679.317;  234.066; 4501.904;-0.01769
 855.73; 4669.100;  222.627; 4484.352;-0.01843
 856.29; 4660.550;  213.855; 4475.132;-0.01850
 856.85; 4653.999;  192.749; 4517.913;-0.01345
 857.41; 4694.449;  203.644; 4600.027;-0.00923
 857.97; 4760.898;  205.205; 4760.141;-0.00007
 858.53; 4949.014;  207.433; 4902.255;-0.00430
 859.09; 5182.797;  192.328; 5028.370;-0.01365
 859.65; 5468.247;  184.889; 5166.484;-0.02554
 860.21; 5712.029;  182.451; 5403.598;-0.02493
 860.77; 5928.479;  179.679; 5685.045;-0.01879
 861.33; 6213.262;  189.573; 6014.826;-0.01455
 861.89; 6512.045;  205.135; 6331.273;-0.01263
 862.45; 6866.161;  215.363; 6656.387;-0.01392
 863.01; 7206.277;  205.924; 6960.168;-0.01554
 863.57; 7588.726;  191.152; 7240.949;-0.02091
 864.13; 8011.843;  180.713; 7598.730;-0.02354
 864.69; 8321.959;  188.608; 7928.510;-0.02153
 865.25; 8681.742;  208.502; 8274.958;-0.02137
 865.81; 8974.524;  215.730; 8598.739;-0.01904
 866.37; 9377.640;  213.625; 8883.853;-0.02406
 866.93; 9669.757;  200.853; 9198.967;-0.02215
 867.49;10023.539;  216.081; 9536.081;-0.02214
 868.05;10279.656;  210.642; 9849.195;-0.01898
 868.61;10654.772;  206.870;10116.309;-0.02298
 869.17;10939.888;  185.765;10306.090;-0.02638
 869.73;11282.004;  202.660;10652.537;-0.02540
 870.29;11641.787;  209.554;10985.985;-0.02566
 870.85;11963.236;  212.115;11316.099;-0.02460
 871.41;12301.353;  192.010;11700.213;-0.02211
 871.97;12530.469;  179.571;12032.994;-0.01785
 872.53;12943.585;  184.799;12414.108;-0.01841
 873.09;13333.701;  192.361;12748.222;-0.01979
 873.65;13821.151;  202.922;13125.336;-0.02278
 874.20;14189.600;  204.150;13530.783;-0.02096
 874.76;14635.267;  206.483;13844.450;-0.02448
 875.32;15010.600;  199.150;14344.450;-0.01999
 875.88;15452.267;  204.817;14722.117;-0.02131
 876.44;15793.933;  218.150;15059.450;-0.02098
 877.00;16179.933;  218.150;15358.117;-0.02296
 877.56;16492.600;  215.483;15696.450;-0.02178
 878.12;16872.267;  204.483;16104.450;-0.02048
 878.68;17101.267;  211.817;16344.450;-0.01991
 879.23;17361.600;  207.150;16637.783;-0.01872
 879.79;17562.600;  220.483;16875.783;-0.01755
 880.35;17854.267;  205.150;17127.117;-0.01827
 880.91;18051.267;  192.150;17367.783;-0.01695
 881.47;18363.267;  175.817;17611.783;-0.01833
 882.03;18671.933;  191.483;17929.783;-0.01780
 882.59;19037.267;  204.150;18199.450;-0.01976
 883.14;19212.933;  217.150;18423.117;-0.01844
 883.70;19430.267;  220.150;18492.117;-0.02174
 884.26;19464.267;  217.483;18606.117;-0.01981
 884.82;19523.933;  200.150;18627.783;-0.02062
 885.38;19343.933;  184.483;18693.783;-0.01499
 885.94;19310.933;  186.817;18692.783;-0.01427
 886.49;19328.267;  200.150;18759.783;-0.01310
 887.05;19433.933;  192.817;18819.450;-0.01410
 887.61;19405.933;  182.817;18766.450;-0.01469
 888.17;19213.267;  175.817;18655.450;-0.01292
 888.73;19067.267;  189.483;18492.450;-0.01343
 889.28;18984.600;  190.150;18251.117;-0.01729
 889.84;18878.267;  191.817;18020.450;-0.02041
 890.40;18660.933;  194.817;17792.450;-0.02092
 890.96;18453.267;  199.483;17628.450;-0.02008
 891.51;18261.600;  189.483;17470.117;-0.01945
 892.07;18055.600;  183.817;17244.117;-0.02018
 892.63;17876.267;  190.483;17036.783;-0.02112
 893.19;17688.267;  200.817;16880.117;-0.02055
 893.74;17523.267;  215.150;16772.783;-0.01925
 894.30;17320.933;  206.150;16671.450;-0.01680
 894.86;17121.267;  185.150;16510.450;-0.01595
 895.42;17056.267;  176.483;16397.450;-0.01729
 895.97;16915.600;  175.150;16362.450;-0.01459
 896.53;16929.600;  203.817;16299.450;-0.01668
 897.09;16848.933;  212.817;16258.117;-0.01570
 897.65;16878.267;  225.483;16079.783;-0.02134
 898.20;16879.933;  228.483;15994.117;-0.02374
 898.76;16812.267;  215.150;15888.117;-0.02488
 899.32;16693.933;  215.483;15824.450;-0.02354
 899.87;16468.933;  206.483;15765.117;-0.01921
 900.43;16353.600;  206.150;15631.783;-0.01986
 900.99;16173.933;  194.483;15508.450;-0.01847
 901.54;16043.267;  181.150;15319.450;-0.02028
 902.10;15864.933;  193.150;15133.117;-0.02077
 902.66;15646.933;  208.483;14918.117;-0.02100
 903.21;15489.933;  221.817;14754.117;-0.02145
 903.77;15263.933;  229.483;14588.450;-0.01996
 904.33;15176.600;  209.483;14443.783;-0.02180
 904.88;14963.600;  198.150;14329.783;-0.01905
 905.44;14857.933;  177.150;14293.450;-0.01703
 906.00;14771.600;  191.150;14324.117;-0.01354
 906.55;14817.267;  207.483;14294.117;-0.01584
 907.11;14779.600;  214.150;14239.117;-0.01642
 907.67;14602.933;  205.817;14016.117;-0.01807
 908.22;14369.267;  196.150;13855.783;-0.01603
 908.78;14274.267;  187.817;13715.783;-0.01757
 909.33;14207.933;  195.483;13616.783;-0.01872
 909.89;14183.267;  192.150;13488.783;-0.02211
 910.45;14044.267;  201.150;13406.783;-0.02047
 911.00;13981.933;  191.483;13362.117;-0.01997
 911.56;13900.933;  203.817;13272.117;-0.02041
 912.12;13793.600;  208.483;13101.117;-0.02272
 912.67;13609.267;  221.483;12951.117;-0.02189
 913.23;13317.933;  194.150;12807.450;-0.01723
 913.78;13179.600;  178.483;12651.783;-0.01800
 914.34;13139.267;  201.483;12642.117;-0.01702
 914.89;13160.267;  216.483;12543.117;-0.02122
 915.45;13068.600;  227.150;12558.117;-0.01762
 916.01;12926.267;  195.483;12386.117;-0.01883
 916.56;12848.933;  201.483;12282.450;-0.01990
 917.12;12677.600;  196.817;12063.117;-0.02193
 917.67;12583.933;  195.483;11981.117;-0.02166
 918.23;12447.600;  182.817;11944.450;-0.01819
 918.78;12320.267;  186.483;11927.117;-0.01430
 919.34;12175.600;  188.817;11843.783;-0.01219
 919.89;11995.933;  199.150;11694.117;-0.01126
 920.45;11941.267;  185.817;11531.783;-0.01540
 921.00;11867.267;  168.817;11330.783;-0.02039
 921.56;11768.933;  176.150;11296.783;-0.01806
 922.11;11639.933;  175.150;11154.450;-0.01879
 922.67;11409.933;  202.483;11048.450;-0.01424
 923.22;11254.600;  191.150;10815.450;-0.01759
 923.78;11082.267;  202.817;10632.117;-0.01835
 924.33;10964.600;  195.817;10497.117;-0.01927
 924.89;10807.267;  196.483;10361.117;-0.01866
 925.44;10632.933;  204.817;10248.117;-0.01633
 926.00;10479.933;  201.150;10018.783;-0.01993
 926.55;10381.933;  205.150; 9867.117;-0.02254
 927.11;10268.267;  188.150; 9720.450;-0.02427
 927.66;10184.933;  177.817; 9717.117;-0.02079
 928.22;10087.600;  174.483; 9670.783;-0.01866
 928.77;10017.933;  190.150; 9636.117;-0.01721
 929.33; 9950.267;  204.150; 9587.783;-0.01646
 929.88; 9900.933;  205.150; 9516.450;-0.01757
 930.43; 9940.600;  182.483; 9493.450;-0.02037
 930.99; 9961.933;  174.817; 9470.117;-0.02239
 931.54;10025.600;  167.150; 9456.783;-0.02581
 932.10; 9948.267;  190.150; 9473.117;-0.02168
 932.65; 9968.933;  197.150; 9480.117;-0.02229
 933.21; 9959.600;  198.483; 9496.450;-0.02111
 933.76;10058.933;  187.483; 9472.117;-0.02662
 934.31;10053.267;  183.150; 9454.117;-0.02720
 934.87; 9999.933;  190.150; 9433.783;-0.02582
 935.42; 9974.933;  199.483; 9431.450;-0.02484
 935.98; 9908.267;  195.483; 9388.450;-0.02389
 936.53; 9869.267;  193.817; 9335.450;-0.02465
 937.08; 9791.267;  191.150; 9347.783;-0.02054
 937.64; 9743.267;  197.817; 9356.783;-0.01795
 938.19; 9741.933;  196.483; 9425.117;-0.01466
 938.74; 9758.600;  199.817; 9340.117;-0.01944
 939.30; 9749.267;  187.150; 9339.783;-0.01901
 939.85; 9681.600;  186.483; 9209.783;-0.02213
 940.40; 9583.600;  173.817; 9251.783;-0.01559
 940.96; 9585.600;  187.150; 9238.450;-0.01635
 941.51; 9555.267;  189.483; 9244.783;-0.01464
 942.06; 9493.933;  197.150; 9160.450;-0.01586
 942.62; 9443.933;  184.817; 9036.783;-0.01953
 943.17; 9330.933;  195.150; 8966.450;-0.01768
 943.72; 9345.933;  180.483; 8903.117;-0.02151
 944.28; 9246.267;  199.483; 8795.117;-0.02222
 944.83; 9232.267;  184.150; 8766.783;-0.02294
 945.38; 9193.267;  194.483; 8735.117;-0.02269
 945.94; 9172.600;  186.483; 8804.450;-0.01817
 946.49; 9154.267;  205.150; 8772.783;-0.01892
 947.04; 9055.600;  208.817; 8738.117;-0.01587
 947.60; 8974.600;  215.150; 8638.117;-0.01701
 948.15; 8888.267;  203.483; 8519.117;-0.01886
 948.70; 8782.600;  212.817; 8413.783;-0.01910
 949.25; 8695.600;  206.150; 8325.117;-0.01938
 949.81; 8579.600;  208.817; 8271.117;-0.01631
 950.36; 8454.600;  198.483; 8157.117;-0.01594
 950.91; 8346.600;  207.150; 8037.783;-0.01680
 951.46; 8226.600;  203.817; 7873.117;-0.01957
 952.02; 8122.267;  207.150; 7734.117;-0.02184
 952.57; 7988.933;  207.150; 7606.450;-0.02189
 953.12; 7830.933;  218.483; 7526.117;-0.01775
 953.67; 7708.933;  218.150; 7443.783;-0.01565
 954.23; 7601.600;  215.817; 7359.450;-0.01448
 954.78; 7548.267;  208.150; 7234.450;-0.01898
 955.33; 7450.267;  218.150; 7119.783;-0.02031
 955.88; 7358.600;  217.150; 6980.117;-0.02365
 956.44; 7222.933;  230.483; 6838.450;-0.02456
 956.99; 7134.600;  228.817; 6737.117;-0.02575
 957.54; 7051.933;  223.817; 6672.783;-0.02481
 958.09; 7007.600;  222.150; 6636.783;-0.02441
 958.64; 6976.600;  206.817; 6607.450;-0.02435
 959.20; 6948.267;  203.483; 6532.450;-0.02764
 959.75; 6855.933;  199.817; 6496.450;-0.02411
 960.30; 6823.267;  218.150; 6441.783;-0.02584
 960.85; 6786.933;  225.150; 6424.450;-0.02468
 961.40; 6813.600;  228.817; 6381.117;-0.02950
 961.95; 6760.600;  231.817; 6360.783;-0.02744
 962.51; 6703.267;  239.483; 6360.117;-0.02369
 963.06; 6681.600;  242.817; 6380.117;-0.02083
 963.61; 6718.933;  234.150; 6314.783;-0.02795
 964.16; 6734.933;  235.150; 6258.450;-0.03306
 964.71; 6748.267;  222.483; 6212.117;-0.03723
 965.26; 6742.267;  213.150; 6253.117;-0.03382
 965.81; 6748.600;  210.817; 6289.117;-0.03165
 966.36; 6737.267;  208.483; 6323.783;-0.02841
 966.92; 6720.600;  216.150; 6305.117;-0.02867
 967.47; 6739.267;  218.483; 6338.117;-0.02757
 968.02; 6752.267;  232.483; 6354.117;-0.02737
 968.57; 6756.600;  234.817; 6375.450;-0.02615
 969.12; 6718.933;  219.817; 6368.783;-0.02405
 969.67; 6751.933;  204.483; 6420.783;-0.02254
 970.22; 6793.267;  194.150; 6469.783;-0.02183
 970.77; 6883.267;  199.817; 6539.117;-0.02296
 971.32; 6978.267;  197.483; 6593.117;-0.02540
 971.87; 7146.933;  198.817; 6693.117;-0.02933
 972.42; 7251.933;  215.150; 6793.117;-0.02928
 972.98; 7343.267;  220.817; 6908.783;-0.02734
 973.53; 7364.933;  231.483; 6996.117;-0.02306
 974.08; 7446.600;  215.483; 7040.450;-0.02510
 974.63; 7548.267;  223.483; 7078.450;-0.02879
 975.18; 7583.267;  218.483; 7103.117;-0.02928
 975.73; 7659.600;  224.817; 7157.450;-0.03037
 976.28; 7695.600;  221.483; 7219.117;-0.02861
 976.83; 7736.600;  221.483; 7315.450;-0.02505
 977.38; 7831.933;  219.483; 7373.783;-0.02696
 977.93; 7804.267;  222.150; 7387.450;-0.02456
 978.48; 7827.600;  228.483; 7365.783;-0.02723
 979.03; 7752.933;  234.817; 7358.117;-0.02343
 979.58; 7791.267;  221.483; 7329.117;-0.02736
 980.13; 7748.933;  207.150; 7367.783;-0.02252
 980.68; 7684.600;  186.483; 7310.450;-0.02223
 981.23; 7618.933;  185.817; 7278.117;-0.02038
 981.78; 7618.267;  207.150; 7207.450;-0.02477
 982.33; 7587.267;  219.150; 7257.117;-0.01991
 982.88; 7586.933;  232.483; 7211.783;-0.02274
 983.43; 7558.933;  218.150; 7145.783;-0.02516
 983.98; 7478.267;  215.150; 6984.117;-0.03060
 984.53; 7356.600;  203.817; 6873.450;-0.03037
 985.08; 7294.267;  209.817; 6835.783;-0.02906
 985.63; 7249.267;  211.150; 6787.117;-0.02950
 986.18; 7175.933;  218.817; 6756.783;-0.02699
 986.73; 7042.933;  218.483; 6610.450;-0.02843
 987.27; 6919.600;  227.483; 6521.117;-0.02666
 987.82; 6874.933;  238.483; 6431.783;-0.03001
 988.37; 6847.267;  243.150; 6400.783;-0.03040
 988.92; 6829.933;  234.150; 6351.117;-0.03273
 989.47; 6708.267;  214.483; 6285.117;-0.02926
 990.02; 6572.600;  208.483; 6199.117;-0.02627
 990.57; 6463.600;  208.150; 6083.117;-0.02725
 991.12; 6430.933;  215.150; 6044.450;-0.02788
 991.67; 6336.267;  213.817; 5969.117;-0.02686
 992.22; 6246.600;  200.483; 5915.450;-0.02446
 992.77; 6104.933;  200.150; 5802.450;-0.02284
 993.31; 6045.600;  204.817; 5735.783;-0.02367
 993.86; 5944.600;  230.483; 5683.783;-0.02029
 994.41; 5827.933;  235.150; 5580.117;-0.01968
 994.96; 5752.600;  226.483; 5473.117;-0.02254
 995.51; 5665.267;  218.817; 5377.783;-0.02355
 996.06; 5602.933;  208.483; 5293.783;-0.02563
 996.61; 5475.600;  222.483; 5201.783;-0.02325
 997.15; 5359.267;  236.150; 5083.450;-0.02403
 997.70; 5234.933;  241.150; 4965.117;-0.02412
 998.25; 5129.933;  247.483; 4873.450;-0.02344
 998.80; 5037.267;  248.483; 4740.117;-0.02782
 999.35; 4888.267;  249.483; 4623.450;-0.02553
 999.90; 4699.600;  236.150; 4455.117;-0.02446
1000.44; 4518.933;  224.483; 4340.450;-0.01844
1000.99; 4407.600;  232.483; 4190.783;-0.02316
1001.54; 4263.267;  237.150; 4067.450;-0.02165
1002.09; 4125.267;  231.817; 3939.117;-0.02128
1002.64; 3991.600;  238.483; 3855.450;-0.01605
1003.18; 3929.267;  240.483; 3766.783;-0.01956
1003.73; 3840.933;  238.483; 3661.450;-0.02220
1004.28; 3776.933;  226.817; 3584.450;-0.02421
1004.83; 3673.267;  209.483; 3488.117;-0.02386
1005.38; 3627.267;  210.150; 3420.783;-0.02707
1005.92; 3593.933;  219.150; 3321.783;-0.03652
1006.47; 3528.267;  236.817; 3231.783;-0.04100
1007.02; 3456.267;  235.483; 3140.117;-0.04487
1007.57; 3309.267;  222.817; 3087.450;-0.03239
1008.11; 3236.267;  211.817; 3028.450;-0.03092
1008.66; 3137.600;  205.150; 2973.450;-0.02502
1009.21; 3055.267;  192.483; 2907.783;-0.02297
1009.75; 2983.267;  177.817; 2862.117;-0.01917
1010.30; 2895.600;  170.150; 2793.117;-0.01665
1010.85; 2860.600;  176.817; 2712.783;-0.02460
1011.40; 2765.933;  204.150; 2628.450;-0.02396
1011.94; 2722.933;  221.817; 2545.783;-0.03190
1012.49; 2616.267;  216.483; 2464.450;-0.02838
1013.04; 2554.600;  194.150; 2362.117;-0.03694
1013.58; 2444.267;  184.150; 2325.117;-0.02352
1014.13; 2365.600;  188.483; 2268.117;-0.01989
1014.68; 2333.933;  196.483; 2233.450;-0.02091
1015.23; 2291.267;  203.150; 2181.450;-0.02346
1015.77; 2257.600;  199.817; 2113.117;-0.03162
1016.32; 2167.267;  204.817; 2072.450;-0.02151
1016.87; 2115.933;  209.483; 2012.783;-0.02416
1017.41; 2097.600;  206.817; 1977.450;-0.02851
1017.96; 2053.600;  194.817; 1953.450;-0.02405
1018.50; 2005.600;  186.483; 1926.450;-0.01932
1019.05; 1916.933;  188.483; 1903.450;-0.00340
1019.60; 1866.600;  182.817; 1815.783;-0.01331
1020.14; 1823.933;  196.150; 1752.783;-0.01941
1020.69; 1781.267;  196.150; 1698.117;-0.02340
1021.24; 1731.933;  209.483; 1650.450;-0.02389
1021.78; 1699.600;  188.483; 1620.450;-0.02337
1022.33; 1677.267;  190.150; 1592.450;-0.02550
1022.87; 1642.600;  182.817; 1587.783;-0.01662
1023.42; 1605.267;  198.150; 1567.117;-0.01194
1023.97; 1549.267;  200.150; 1516.117;-0.01080
1024.51; 1511.600;  212.150; 1465.117;-0.01582
1025.06; 1451.933;  200.483; 1401.117;-0.01800
1025.60; 1423.933;  198.817; 1340.783;-0.03052
1026.15; 1385.267;  181.150; 1307.783;-0.02889
1026.70; 1379.933;  185.483; 1284.783;-0.03605
1027.24; 1352.933;  195.483; 1279.783;-0.02835
1027.79; 1344.600;  200.483; 1270.450;-0.02910
1028.33; 1309.267;  197.483; 1252.450;-0.02278
1028.88; 1272.600;  188.817; 1215.450;-0.02353
1029.42; 1245.933;  208.150; 1198.450;-0.02034
1029.97; 1200.933;  197.817; 1156.450;-0.01970
1030.51; 1162.933;  190.150; 1127.117;-0.01629
1031.06; 1142.600;  182.817; 1088.783;-0.02506
1031.61; 1125.600;  192.483; 1063.117;-0.03010
1032.15; 1156.267;  210.150; 1050.450;-0.05151
1032.70; 1123.600;  202.817; 1024.117;-0.04966
1033.24; 1107.267;  206.483; 1018.117;-0.04526
1033.79; 1063.600;  200.817; 1020.450;-0.02228
1034.33; 1055.933;  199.817; 1016.450;-0.02051
1034.88; 1034.600;  201.817; 1008.783;-0.01368
1035.42; 1010.267;  202.817;  979.450;-0.01690
1035.97;  973.933;  204.483;  950.450;-0.01346
1036.51;  986.267;  206.483;  931.450;-0.03166
1037.06;  974.600;  200.817;  944.117;-0.01746
1037.60;  998.600;  207.150;  948.783;-0.02823
1038.14;  986.267;  204.150;  928.783;-0.03315
1038.69;  996.600;  222.150;  927.783;-0.04041
1039.23;  996.933;  234.483;  935.783;-0.03631
1039.78;  976.600;  235.150;  948.783;-0.01661
1040.32;  957.267;  224.483;  915.783;-0.02531
1040.87;  938.933;  208.483;  887.117;-0.03196
1041.41;  932.600;  198.150;  864.117;-0.04251
1041.96;  931.600;  200.817;  882.783;-0.03003
1042.50;  931.600;  197.817;  893.117;-0.02340
1043.04;  941.267;  213.817;  899.117;-0.02592
1043.59;  933.933;  217.150;  867.450;-0.04227
1044.13;  903.933;  212.483;  869.450;-0.02222
1044.68;  890.933;  205.817;  862.117;-0.01866
1045.22;  872.267;  199.150;  873.783; 0.00098
1045.76;  883.267;  201.817;  869.450;-0.00890
1046.31;  877.600;  193.483;  861.783;-0.01016
1046.85;  881.267;  200.483;  842.117;-0.02572
1047.40;  855.933;  202.483;  813.783;-0.02896
1047.94;  845.267;  215.150;  808.783;-0.02590
1048.48;  850.933;  211.150;  810.117;-0.02863
1049.03;  850.933;  214.483;  793.450;-0.04111
1049.57;  849.267;  229.150;  787.117;-0.04587
1050.11;  846.600;  222.817;  774.117;-0.05365
1050.66;  834.600;  218.483;  779.117;-0.04098
1051.20;  844.267;  206.483;  794.450;-0.03532
1051.74;  802.267;  200.817;  788.117;-0.01034
1052.29;  782.600;  200.150;  780.783;-0.00136
1052.83;  759.267;  199.150;  748.117;-0.00873
1053.37;  801.933;  224.817;  744.783;-0.04529
1053.92;  808.267;  234.150;  739.783;-0.05516
1054.46;  795.267;  236.483;  734.117;-0.05033
1055.00;  762.600;  231.483;  739.117;-0.01964
1055.55;  774.933;  230.817;  738.117;-0.03043
1056.09;  767.600;  223.817;  747.783;-0.01612
1056.63;  745.600;  215.817;  711.783;-0.02865
1057.17;  723.600;  216.483;  709.117;-0.01258
1057.72;  719.267;  225.150;  697.450;-0.01961
1058.26;  711.267;  223.483;  705.783;-0.00491
1058.80;  714.267;  229.817;  700.450;-0.01257
1059.35;  709.933;  230.483;  686.450;-0.02181
1059.89;  708.933;  230.150;  672.450;-0.03442
1060.43;  698.267;  227.817;  654.783;-0.04212
1060.97;  696.933;  223.817;  667.117;-0.02827
1061.52;  691.933;  231.150;  682.450;-0.00903
1062.06;  688.933;  231.483;  671.450;-0.01692
1062.60;  679.600;  236.483;  658.450;-0.02124
1063.14;  682.267;  232.483;  640.783;-0.04202
1063.69;  665.600;  216.483;  640.117;-0.02537
1064.23;  645.267;  208.817;  619.783;-0.02613
1064.77;  620.267;  200.483;  598.450;-0.02318
1065.31;  607.600;  201.817;  577.450;-0.03353
1065.85;  603.600;  206.483;  567.117;-0.04185
1066.40;  613.267;  205.150;  579.450;-0.03756
1066.94;  616.600;  217.817;  579.117;-0.04287
1067.48;  617.933;  209.150;  587.783;-0.03327
1068.02;  616.267;  233.817;  562.450;-0.06586
1068.56;  600.267;  216.817;  564.783;-0.04217
1069.10;  590.600;  212.817;  549.783;-0.04966
1069.65;  578.933;  195.817;  566.450;-0.01439
1070.19;  594.267;  208.817;  566.783;-0.03213
1070.73;  600.600;  223.817;  582.783;-0.02104
1071.27;  602.600;  215.817;  567.117;-0.04179
1071.81;  586.267;  207.150;  562.117;-0.02859
1072.35;  580.600;  201.817;  549.117;-0.03769
1072.90;  566.933;  197.150;  546.783;-0.02433
1073.44;  556.933;  202.817;  540.117;-0.02113
1073.98;  549.267;  206.150;  531.450;-0.02316
1074.52;  553.267;  224.483;  538.783;-0.01957
1075.06;  547.600;  218.483;  542.450;-0.00685
1075.60;  526.600;  207.483;  531.450; 0.00655
1076.14;  512.933;  204.817;  514.117; 0.00166
1076.68;  524.600;  207.150;  504.450;-0.02848
1077.22;  536.600;  225.817;  504.783;-0.04691
1077.76;  552.933;  214.817;  498.117;-0.07682
1078.31;  542.933;  229.817;  499.783;-0.06440
1078.85;  549.600;  226.483;  517.117;-0.04601
1079.39;  538.933;  243.817;  525.450;-0.02031
1079.93;  541.600;  237.817;  507.783;-0.05125
1080.47;  527.600;  227.483;  476.450;-0.08115
1081.01;  522.600;  216.150;  474.783;-0.07368
1081.55;  523.933;  208.483;  488.783;-0.05131
1082.09;  531.267;  205.817;  488.783;-0.06075
1082.63;  541.267;  210.150;  496.450;-0.06316
1083.17;  544.267;  221.150;  500.783;-0.06277
1083.71;  543.267;  228.817;  501.450;-0.06197
1084.25;  513.267;  224.483;  471.117;-0.06852
1084.79;  479.600;  214.483;  446.450;-0.05801
1085.33;  475.267;  202.817;  450.783;-0.04089
1085.87;  489.933;  199.483;  468.450;-0.03337
1086.41;  510.933;  214.483;  471.450;-0.06207
1086.95;  490.600;  222.150;  467.117;-0.03976
1087.49;  500.600;  225.817;  454.783;-0.07922
1088.03;  493.600;  216.817;  454.117;-0.06684
1088.57;  496.933;  219.817;  450.783;-0.07911
1089.11;  479.933;  222.150;  448.117;-0.05721
1089.65;  497.267;  233.150;  458.783;-0.06839
1090.19;  503.600;  238.483;  468.117;-0.06240
1090.73;  491.600;  240.483;  471.783;-0.03570
1091.27;  465.267;  238.817;  466.117; 0.00163
1091.81;  477.933;  238.483;  458.117;-0.03752
1092.35;  482.600;  247.483;  461.450;-0.04094
1092.89;  477.600;  232.150;  457.450;-0.03720
1093.43;  453.600;  223.817;  445.783;-0.01503
1093.97;  462.933;  210.150;  441.117;-0.03920
1094.51;  461.933;  208.483;  440.450;-0.03847
1095.04;  472.267;  218.483;  442.783;-0.05363
1095.58;  475.933;  238.817;  436.783;-0.07837
1096.12;  474.600;  242.817;  428.783;-0.09565
1096.66;  474.600;  239.817;  430.450;-0.09047
1097.20;  455.933;  235.817;  449.450;-0.01298
1097.74;  481.933;  246.817;  456.783;-0.04913
1098.28;  461.267;  235.817;  457.117;-0.00807
1098.82;  448.600;  230.483;  453.117; 0.00890
1099.36;  421.267;  228.150;  446.450; 0.05323
1099.89;  425.933;  230.150;  447.450; 0.04528

