
Integration time [ms]:   0.300
Averaging Nr. [scans]: 1
Smoothing Nr. [pixels]: 1
Data measured with spectrometer [name]: 1906252U1
Wave   ;Sample   ;Dark     ;Reference;Absorbance
[nm]   ;[counts] ;[counts] ;[counts] ;[A.U]

 161.30;  314.892;  271.207;  271.637; 0.00000
 161.90;  282.238;  265.524;  261.712; 0.00000
 162.51;  259.937;  259.038;  260.433; 0.19098
 163.11;  258.351;  265.693;  251.834; 0.00000
 163.71;  273.313;  276.696;  266.803; 0.00000
 164.31;  293.314;  294.270;  273.488; 0.00000
 164.91;  287.914;  288.393;  287.410; 0.00000
 165.52;  265.118;  277.299;  279.261; 5.00000
 166.12;  246.606;  271.979;  273.718; 5.00000
 166.72;  250.650;  272.971;  259.755; 0.00000
 167.32;  284.262;  271.656;  271.040; 0.00000
 167.93;  284.426;  261.266;  267.518;-0.56874
 168.53;  283.861;  254.112;  260.296;-0.68225
 169.13;  271.481;  264.427;  257.261; 0.00000
 169.73;  292.572;  271.677;  266.351; 0.00000
 170.33;  312.664;  291.614;  320.561; 0.13835
 170.94;  324.953;  317.756;  347.746; 0.61980
 171.54;  335.631;  335.278;  387.239; 2.16836
 172.14;  338.250;  338.926;  375.538; 5.00000
 172.74;  333.577;  324.358;  373.181; 0.72391
 173.34;  329.955;  319.589;  355.569; 0.54046
 173.95;  330.648;  309.596;  343.923; 0.21234
 174.55;  332.953;  318.289;  355.228; 0.40123
 175.15;  337.879;  320.689;  367.155; 0.43188
 175.75;  336.931;  322.370;  380.195; 0.59891
 176.35;  348.746;  332.415;  382.036; 0.48265
 176.95;  344.919;  327.740;  392.907; 0.57903
 177.56;  351.363;  327.608;  398.355; 0.47396
 178.16;  341.989;  316.738;  399.298; 0.51449
 178.76;  331.866;  316.306;  398.487; 0.72277
 179.36;  335.076;  310.874;  401.343; 0.57265
 179.96;  340.893;  304.800;  395.813; 0.40168
 180.56;  358.373;  308.938;  392.969; 0.23040
 181.17;  374.159;  318.009;  403.448; 0.18230
 181.77;  386.548;  318.897;  417.181; 0.16221
 182.37;  387.150;  306.653;  404.111; 0.08304
 182.97;  404.495;  319.309;  413.789; 0.04497
 183.57;  419.991;  323.525;  427.944; 0.03440
 184.17;  450.494;  336.736;  473.104; 0.07873
 184.78;  444.651;  316.624;  484.587; 0.11791
 185.38;  451.223;  315.012;  504.833; 0.14413
 185.98;  463.340;  315.783;  504.638; 0.10717
 186.58;  468.476;  316.598;  510.449; 0.10597
 187.18;  464.364;  313.002;  491.678; 0.07205
 187.78;  462.084;  324.256;  526.070; 0.16561
 188.38;  482.842;  331.840;  541.159; 0.14183
 188.98;  501.549;  337.804;  574.199; 0.15947
 189.59;  505.902;  332.575;  567.529; 0.13212
 190.19;  505.447;  326.870;  580.708; 0.15273
 190.79;  507.665;  326.914;  573.939; 0.13566
 191.39;  496.994;  317.159;  564.285; 0.13805
 191.99;  483.423;  322.498;  545.363; 0.14142
 192.59;  474.000;  317.307;  539.929; 0.15252
 193.19;  458.094;  313.765;  525.712; 0.16687
 193.79;  457.654;  325.164;  530.280; 0.18981
 194.39;  448.063;  328.250;  517.658; 0.19890
 195.00;  438.237;  327.216;  511.139; 0.21923
 195.60;  411.816;  305.566;  480.732; 0.21712
 196.20;  386.874;  304.088;  469.473; 0.30054
 196.80;  392.733;  305.278;  453.989; 0.23056
 197.40;  392.250;  313.686;  455.186; 0.25554
 198.00;  407.174;  320.693;  452.457; 0.18287
 198.60;  404.674;  317.270;  442.943; 0.15771
 199.20;  390.260;  312.435;  427.513; 0.16987
 199.80;  372.189;  303.957;  416.753; 0.21831
 200.40;  352.633;  299.492;  396.868; 0.26302
 201.00;  344.180;  293.841;  371.434; 0.18792
 201.60;  321.476;  292.845;  340.403; 0.22039
 202.21;  320.977;  298.995;  352.240; 0.38421
 202.81;  327.637;  303.760;  367.883; 0.42903
 203.41;  341.027;  301.801;  377.921; 0.28793
 204.01;  330.049;  296.447;  373.611; 0.36104
 204.61;  317.247;  287.965;  374.799; 0.47209
 205.21;  308.130;  280.528;  391.328; 0.60360
 205.81;  320.379;  276.000;  394.567; 0.42678
 206.41;  324.136;  281.190;  389.667; 0.40241
 207.01;  330.965;  291.585;  373.516; 0.31817
 207.61;  324.992;  290.832;  349.221; 0.23281
 208.21;  323.535;  294.007;  340.088; 0.19328
 208.81;  328.495;  285.376;  350.048; 0.17605
 209.41;  312.371;  292.971;  355.294; 0.50684
 210.01;  304.886;  286.985;  361.835; 0.62130
 210.61;  300.050;  290.534;  351.990; 0.81011
 211.21;  304.967;  293.399;  356.219; 0.73484
 211.81;  312.703;  300.157;  352.258; 0.61836
 212.41;  301.623;  301.896;  344.513; 5.00000
 213.01;  318.374;  296.332;  351.625; 0.39941
 213.61;  316.750;  285.263;  357.339; 0.35966
 214.21;  321.840;  282.939;  368.411; 0.34186
 214.81;  304.501;  278.704;  361.387; 0.50586
 215.41;  324.430;  282.466;  362.645; 0.28119
 216.01;  327.971;  278.247;  362.189; 0.22741
 216.61;  330.562;  287.920;  357.792; 0.21447
 217.21;  321.147;  290.599;  357.391; 0.33974
 217.81;  327.897;  297.221;  367.800; 0.36187
 218.41;  336.850;  301.628;  379.081; 0.34223
 219.01;  331.258;  307.801;  388.505; 0.53663
 219.61;  312.327;  301.739;  384.906; 0.89516
 220.21;  307.284;  297.568;  378.507; 0.92069
 220.81;  312.832;  283.737;  372.713; 0.48546
 221.41;  333.809;  284.091;  376.024; 0.26696
 222.01;  339.174;  280.426;  372.049; 0.19301
 222.61;  337.560;  298.953;  367.451; 0.24902
 223.21;  326.177;  301.813;  357.103; 0.35591
 223.81;  328.426;  301.952;  360.676; 0.34599
 224.41;  320.747;  281.875;  343.618; 0.20095
 225.01;  307.063;  269.317;  340.250; 0.27398
 225.61;  300.824;  274.108;  341.033; 0.39882
 226.21;  292.017;  273.112;  349.918; 0.60881
 226.81;  301.601;  286.490;  349.175; 0.61789
 227.41;  321.376;  284.059;  344.282; 0.20785
 228.01;  338.352;  302.172;  351.241; 0.13234
 228.61;  356.945;  306.727;  360.474; 0.02949
 229.21;  343.170;  303.825;  362.700; 0.17505
 229.81;  343.912;  308.998;  372.791; 0.26178
 230.41;  330.182;  299.055;  383.396; 0.43290
 231.01;  321.053;  300.808;  405.942; 0.71543
 231.61;  320.870;  287.307;  401.095; 0.53024
 232.21;  329.949;  300.328;  383.489; 0.44831
 232.81;  322.407;  296.307;  370.928; 0.45621
 233.41;  316.143;  302.578;  372.995; 0.71527
 234.00;  309.380;  298.240;  379.918; 0.86522
 234.60;  317.407;  290.487;  363.623; 0.43405
 235.20;  327.708;  295.152;  359.264; 0.29430
 235.80;  328.213;  295.330;  365.432; 0.32876
 236.40;  332.502;  302.765;  379.044; 0.40911
 237.00;  332.933;  303.584;  384.824; 0.44217
 237.60;  330.073;  294.000;  377.651; 0.36529
 238.20;  324.974;  295.121;  389.214; 0.49857
 238.80;  300.453;  274.112;  389.668; 0.64216
 239.40;  303.884;  279.177;  403.402; 0.70140
 240.00;  313.786;  284.599;  402.640; 0.60683
 240.59;  326.763;  298.133;  401.312; 0.55676
 241.19;  334.853;  297.989;  399.745; 0.44096
 241.79;  339.495;  288.710;  384.715; 0.27656
 242.39;  335.365;  292.222;  383.909; 0.32740
 242.99;  327.902;  286.642;  375.121; 0.33131
 243.59;  312.521;  289.230;  388.763; 0.63078
 244.19;  319.665;  286.160;  385.560; 0.47228
 244.79;  317.448;  287.511;  384.652; 0.51119
 245.39;  333.355;  287.293;  395.554; 0.37113
 245.98;  335.919;  273.053;  391.453; 0.27494
 246.58;  339.407;  274.487;  389.290; 0.24757
 247.18;  340.798;  285.342;  384.364; 0.25178
 247.78;  348.544;  295.696;  398.758; 0.29007
 248.38;  353.955;  288.656;  421.162; 0.30733
 248.98;  346.749;  277.356;  419.988; 0.31290
 249.58;  326.433;  265.673;  430.671; 0.43386
 250.17;  345.296;  275.285;  426.842; 0.33541
 250.77;  342.418;  283.143;  431.967; 0.39980
 251.37;  340.852;  286.929;  425.089; 0.40861
 251.97;  325.253;  270.293;  429.805; 0.46275
 252.57;  326.349;  265.298;  436.882; 0.44879
 253.17;  340.620;  272.929;  449.172; 0.41558
 253.77;  335.071;  284.186;  466.282; 0.55371
 254.36;  333.590;  295.474;  468.774; 0.65769
 254.96;  323.712;  295.333;  480.567; 0.81472
 255.56;  328.447;  288.604;  484.301; 0.69123
 256.16;  336.338;  278.462;  506.509; 0.59553
 256.76;  336.603;  277.524;  496.109; 0.56819
 257.36;  328.772;  276.735;  508.603; 0.64893
 257.95;  319.890;  264.992;  503.713; 0.63834
 258.55;  330.917;  264.239;  518.084; 0.58059
 259.15;  341.627;  260.564;  510.454; 0.48893
 259.75;  356.835;  269.345;  523.998; 0.46399
 260.35;  355.769;  267.461;  538.318; 0.48674
 260.94;  342.504;  268.819;  539.764; 0.56550
 261.54;  344.523;  275.530;  547.771; 0.59615
 262.14;  340.548;  279.723;  553.422; 0.65320
 262.74;  357.653;  296.084;  592.169; 0.68206
 263.34;  362.413;  285.302;  604.600; 0.61708
 263.93;  371.024;  271.414;  619.201; 0.54301
 264.53;  360.938;  269.158;  628.783; 0.59310
 265.13;  360.366;  270.950;  628.566; 0.60200
 265.73;  352.943;  275.426;  648.466; 0.68236
 266.33;  370.224;  278.566;  678.397; 0.63971
 266.92;  345.850;  275.029;  689.673; 0.76751
 267.52;  352.564;  279.954;  705.726; 0.76818
 268.12;  351.088;  273.264;  717.281; 0.75629
 268.72;  371.296;  281.951;  749.175; 0.71845
 269.31;  378.954;  293.596;  782.505; 0.75798
 269.91;  374.483;  296.813;  783.686; 0.79717
 270.51;  364.574;  298.884;  823.747; 0.90254
 271.11;  349.195;  296.018;  844.685; 1.01359
 271.70;  344.178;  281.274;  877.686; 0.97687
 272.30;  347.052;  270.568;  887.924; 0.90696
 272.90;  370.882;  264.784;  909.412; 0.78360
 273.50;  377.350;  274.785;  916.521; 0.79636
 274.09;  370.684;  285.359;  947.539; 0.88990
 274.69;  356.475;  293.425;  961.690; 1.02526
 275.29;  354.839;  297.126; 1011.041; 1.09237
 275.89;  376.669;  301.162; 1057.168; 1.00054
 276.48;  394.898;  306.441; 1108.365; 0.95740
 277.08;  410.880;  303.217; 1149.330; 0.89536
 277.68;  411.132;  300.562; 1156.928; 0.88902
 278.28;  413.587;  297.934; 1188.748; 0.88663
 278.87;  412.048;  305.120; 1219.213; 0.93190
 279.47;  416.207;  316.402; 1279.019; 0.98430
 280.07;  429.062;  311.564; 1306.537; 0.92778
 280.66;  448.990;  305.599; 1329.806; 0.85386
 281.26;  454.131;  299.502; 1356.605; 0.83483
 281.86;  458.662;  299.353; 1408.460; 0.84273
 282.46;  449.860;  289.111; 1464.667; 0.86409
 283.05;  473.050;  270.001; 1525.842; 0.79133
 283.65;  470.791;  269.267; 1577.248; 0.81227
 284.25;  491.522;  276.537; 1628.707; 0.79862
 284.84;  512.607;  297.639; 1660.819; 0.80218
 285.44;  536.169;  304.585; 1722.349; 0.78690
 286.04;  555.123;  306.626; 1767.304; 0.76923
 286.63;  564.679;  299.604; 1827.551; 0.76074
 287.23;  591.383;  285.934; 1878.582; 0.71718
 287.83;  607.460;  285.987; 1956.635; 0.71574
 288.42;  626.307;  282.947; 2012.456; 0.70217
 289.02;  638.528;  281.018; 2081.351; 0.70207
 289.62;  651.842;  274.153; 2105.373; 0.68561
 290.21;  676.349;  278.965; 2173.882; 0.67838
 290.81;  703.993;  296.139; 2171.832; 0.66266
 291.41;  716.437;  301.675; 2217.279; 0.66451
 292.00;  720.748;  287.695; 2273.257; 0.66134
 292.60;  730.084;  266.816; 2355.570; 0.65406
 293.20;  777.122;  269.053; 2441.953; 0.63112
 293.79;  811.680;  275.331; 2498.541; 0.61753
 294.39;  838.917;  284.326; 2544.463; 0.61016
 294.99;  835.233;  280.435; 2588.095; 0.61904
 295.58;  856.791;  284.687; 2619.961; 0.61086
 296.18;  894.071;  271.100; 2672.236; 0.58595
 296.78;  938.359;  267.474; 2741.524; 0.56676
 297.37;  976.403;  256.039; 2819.912; 0.55134
 297.97; 1012.270;  255.858; 2927.442; 0.54801
 298.57; 1051.380;  262.727; 2989.557; 0.53877
 299.16; 1084.915;  278.359; 3083.789; 0.54136
 299.76; 1101.157;  281.775; 3176.366; 0.54810
 300.35; 1133.177;  281.214; 3269.362; 0.54498
 300.95; 1156.934;  278.404; 3324.462; 0.53998
 301.55; 1208.289;  287.229; 3346.846; 0.52138
 302.14; 1240.461;  278.314; 3431.366; 0.51549
 302.74; 1314.960;  277.164; 3537.862; 0.49720
 303.33; 1359.019;  277.506; 3665.575; 0.49592
 303.93; 1404.715;  284.053; 3763.621; 0.49205
 304.53; 1438.494;  290.889; 3809.743; 0.48661
 305.12; 1469.508;  285.666; 3889.067; 0.48342
 305.72; 1513.196;  304.345; 3962.749; 0.48092
 306.31; 1517.596;  292.556; 4062.826; 0.48822
 306.91; 1560.673;  290.122; 4183.574; 0.48634
 307.51; 1586.175;  280.000; 4278.734; 0.48592
 308.10; 1652.161;  295.710; 4394.048; 0.48020
 308.70; 1699.163;  291.190; 4468.751; 0.47233
 309.29; 1766.538;  287.634; 4547.826; 0.45949
 309.89; 1811.746;  264.902; 4638.675; 0.45141
 310.48; 1864.868;  273.673; 4739.754; 0.44820
 311.08; 1911.893;  268.620; 4876.118; 0.44776
 311.68; 1958.462;  273.221; 4959.384; 0.44416
 312.27; 2007.700;  278.703; 5074.278; 0.44305
 312.87; 2043.286;  271.869; 5225.848; 0.44663
 313.46; 2105.114;  276.691; 5385.013; 0.44620
 314.06; 2169.996;  276.193; 5529.885; 0.44313
 314.65; 2260.014;  282.238; 5632.559; 0.43220
 315.25; 2330.389;  283.262; 5774.255; 0.42851
 315.85; 2383.677;  277.637; 5914.876; 0.42760
 316.44; 2436.073;  287.913; 6071.938; 0.43016
 317.04; 2495.131;  295.255; 6216.984; 0.43005
 317.63; 2548.138;  310.823; 6400.341; 0.43486
 318.23; 2602.063;  298.737; 6546.296; 0.43336
 318.82; 2680.999;  293.221; 6674.883; 0.42694
 319.42; 2766.340;  273.276; 6781.545; 0.41673
 320.01; 2841.080;  280.055; 6929.646; 0.41438
 320.61; 2873.782;  290.511; 7164.652; 0.42505
 321.20; 2953.781;  285.758; 7272.939; 0.41811
 321.80; 3007.866;  292.860; 7497.718; 0.42385
 322.39; 3107.972;  275.154; 7636.540; 0.41474
 322.99; 3168.643;  275.755; 7857.556; 0.41844
 323.58; 3260.986;  286.597; 7977.531; 0.41258
 324.18; 3305.821;  287.901; 8124.673; 0.41443
 324.77; 3367.477;  292.485; 8318.013; 0.41663
 325.37; 3441.294;  278.984; 8442.167; 0.41186
 325.96; 3542.766;  276.253; 8588.958; 0.40566
 326.56; 3655.566;  298.768; 8771.095; 0.40208
 327.15; 3697.237;  300.036; 8947.778; 0.40578
 327.75; 3758.325;  300.925; 9129.536; 0.40714
 328.34; 3793.983;  272.723; 9291.838; 0.40847
 328.94; 3866.734;  266.072; 9447.905; 0.40655
 329.53; 3954.372;  277.765; 9658.876; 0.40681
 330.13; 4067.937;  293.098; 9872.460; 0.40444
 330.72; 4173.669;  297.428;10112.576; 0.40349
 331.32; 4256.150;  296.807;10347.750; 0.40458
 331.91; 4361.486;  286.021;10578.045; 0.40232
 332.51; 4496.249;  290.846;10832.428; 0.39910
 333.10; 4572.512;  280.941;11112.686; 0.40208
 333.69; 4586.354;  268.720;11343.870; 0.40910
 334.29; 4551.791;  259.020;11372.294; 0.41310
 334.88; 4595.737;  263.526;11404.218; 0.41020
 335.48; 4655.347;  274.151;11347.513; 0.40269
 336.07; 4730.845;  277.361;11521.065; 0.40221
 336.67; 4745.200;  271.793;11561.792; 0.40206
 337.26; 4811.145;  270.478;11724.744; 0.40185
 337.86; 4837.514;  274.661;11795.073; 0.40223
 338.45; 4912.691;  285.081;11996.201; 0.40324
 339.04; 4874.207;  280.248;12122.714; 0.41126
 339.64; 4965.304;  279.247;12324.855; 0.41002
 340.23; 5025.641;  276.541;12444.594; 0.40861
 340.83; 5164.712;  283.446;12579.002; 0.40122
 341.42; 5213.872;  284.034;12728.085; 0.40213
 342.02; 5260.854;  280.810;12860.717; 0.40244
 342.61; 5304.238;  285.029;12994.842; 0.40350
 343.20; 5376.061;  280.703;13173.363; 0.40317
 343.80; 5411.577;  275.024;13326.514; 0.40499
 344.39; 5486.529;  277.525;13574.777; 0.40701
 344.99; 5552.668;  284.701;13698.586; 0.40591
 345.58; 5650.748;  281.629;13941.331; 0.40554
 346.17; 5697.040;  272.425;14086.941; 0.40597
 346.77; 5736.615;  263.601;14425.499; 0.41289
 347.36; 5820.867;  267.766;14640.403; 0.41300
 347.96; 5907.876;  271.456;14918.073; 0.41473
 348.55; 6027.866;  272.039;15018.413; 0.40858
 349.14; 6104.042;  269.152;15148.264; 0.40654
 349.74; 6192.431;  282.193;15379.635; 0.40730
 350.33; 6294.088;  292.264;15619.281; 0.40717
 350.92; 6402.211;  292.029;15990.758; 0.40981
 351.52; 6457.488;  276.988;16197.719; 0.41094
 352.11; 6506.134;  277.642;16449.038; 0.41436
 352.70; 6570.564;  293.221;16652.467; 0.41599
 353.30; 6714.800;  299.069;16923.354; 0.41350
 353.89; 6798.930;  289.556;17199.826; 0.41461
 354.49; 6890.549;  295.537;17471.125; 0.41570
 355.08; 6943.339;  303.789;17648.240; 0.41702
 355.67; 7023.981;  306.509;17850.877; 0.41693
 356.27; 7115.529;  292.678;18013.082; 0.41451
 356.86; 7207.828;  288.376;18230.048; 0.41379
 357.45; 7294.443;  297.756;18507.331; 0.41541
 358.05; 7386.075;  297.214;18684.613; 0.41394
 358.64; 7429.422;  292.504;18894.298; 0.41604
 359.23; 7457.613;  289.300;19081.825; 0.41857
 359.83; 7470.511;  289.121;19433.380; 0.42583
 360.42; 7587.051;  293.174;19722.600; 0.42550
 361.01; 7718.620;  287.355;19981.487; 0.42327
 361.61; 7829.362;  287.502;20183.522; 0.42129
 362.20; 7928.229;  294.987;20496.718; 0.42268
 362.79; 7969.444;  302.910;20634.303; 0.42357
 363.38; 8055.635;  301.613;20815.514; 0.42252
 363.98; 8090.857;  289.171;20943.715; 0.42283
 364.57; 8175.960;  277.744;21176.149; 0.42258
 365.16; 8282.611;  288.573;21351.502; 0.42075
 365.76; 8375.381;  293.720;21537.287; 0.41973
 366.35; 8477.331;  294.920;21731.542; 0.41828
 366.94; 8493.941;  286.459;21913.791; 0.42079
 367.53; 8572.943;  286.426;22067.466; 0.41971
 368.13; 8641.616;  291.994;22246.489; 0.41986
 368.72; 8695.413;  285.482;22413.295; 0.42015
 369.31; 8747.797;  292.281;22597.374; 0.42126
 369.91; 8780.952;  283.382;22746.877; 0.42218
 370.50; 8840.173;  291.699;22820.059; 0.42084
 371.09; 8804.727;  278.017;22946.909; 0.42465
 371.68; 8906.483;  286.967;23106.324; 0.42282
 372.28; 9045.396;  294.984;23340.584; 0.42056
 372.87; 9143.307;  297.367;23443.502; 0.41773
 373.46; 9179.085;  297.723;23614.255; 0.41918
 374.05; 9225.671;  287.889;23758.158; 0.41929
 374.65; 9303.662;  290.440;23950.173; 0.41913
 375.24; 9347.502;  272.918;24146.349; 0.42009
 375.83; 9398.179;  275.848;24331.370; 0.42111
 376.42; 9484.674;  273.516;24515.563; 0.42026
 377.02; 9567.945;  293.907;24527.502; 0.41715
 377.61; 9656.786;  288.112;24762.668; 0.41704
 378.20; 9733.922;  297.747;24944.118; 0.41696
 378.79; 9748.695;  297.015;25086.217; 0.41875
 379.38; 9822.936;  282.191;25204.109; 0.41700
 379.98; 9897.648;  267.243;25344.469; 0.41563
 380.57;10051.555;  272.112;25606.751; 0.41340
 381.16;10059.905;  291.609;25727.129; 0.41562
 381.75;10147.927;  289.589;25767.151; 0.41235
 382.35;10236.033;  283.703;25937.612; 0.41123
 382.94;10418.451;  271.231;26182.039; 0.40713
 383.53;10552.845;  279.541;26558.760; 0.40790
 384.12;10708.400;  269.432;26865.627; 0.40616
 384.71;10776.133;  284.069;27028.687; 0.40638
 385.31;10869.302;  287.699;27353.893; 0.40788
 385.90;10920.833;  299.731;27598.110; 0.40997
 386.49;11097.403;  283.306;27919.987; 0.40750
 387.08;11249.035;  296.763;28085.602; 0.40437
 387.67;11410.688;  302.047;28384.267; 0.40277
 388.26;11503.828;  312.463;28670.094; 0.40379
 388.86;11568.481;  297.866;29041.131; 0.40659
 389.45;11725.939;  285.685;29324.329; 0.40454
 390.04;11872.074;  279.860;29566.863; 0.40251
 390.63;12004.467;  284.795;29878.048; 0.40228
 391.22;12120.725;  294.422;30097.179; 0.40141
 391.81;12174.750;  303.408;30368.117; 0.40356
 392.41;12293.971;  324.211;30517.642; 0.40183
 393.00;12394.912;  349.022;30747.606; 0.40201
 393.59;12562.455;  379.676;31111.212; 0.40184
 394.18;12774.960;  399.780;31505.223; 0.40028
 394.77;12969.386;  433.703;31930.599; 0.40012
 395.36;13123.780;  473.557;32244.356; 0.39993
 395.95;13258.369;  524.323;32561.017; 0.40068
 396.55;13432.066;  566.236;32856.406; 0.39963
 397.14;13662.766;  594.577;33298.717; 0.39839
 397.73;13802.522;  601.786;33627.642; 0.39826
 398.32;13938.633;  612.294;34204.404; 0.40153
 398.91;14104.473;  621.039;34614.988; 0.40160
 399.50;14444.701;  632.059;35200.379; 0.39840
 400.09;14708.671;  605.452;35675.306; 0.39562
 400.68;14944.289;  582.293;36366.134; 0.39647
 401.27;15252.600;  548.561;37014.694; 0.39445
 401.87;15548.941;  525.771;37604.957; 0.39237
 402.46;15933.564;  501.053;38119.893; 0.38697
 403.05;16190.110;  484.389;38675.942; 0.38591
 403.64;16548.004;  490.521;39240.769; 0.38260
 404.23;16778.706;  484.797;39841.080; 0.38299
 404.82;17028.671;  502.588;40438.695; 0.38320
 405.41;17271.496;  491.629;41140.816; 0.38426
 406.00;17597.752;  497.890;41752.976; 0.38248
 406.59;17823.713;  479.966;42383.807; 0.38311
 407.18;18051.055;  482.149;42943.385; 0.38325
 407.77;18276.714;  466.520;43500.038; 0.38314
 408.37;18527.976;  484.641;43973.019; 0.38206
 408.96;18773.122;  491.806;44465.898; 0.38119
 409.55;19012.853;  504.476;44970.283; 0.38066
 410.14;19209.095;  481.626;45459.452; 0.38052
 410.73;19425.454;  490.299;45905.805; 0.37994
 411.32;19634.746;  492.855;46441.730; 0.38029
 411.91;19915.638;  505.687;47060.216; 0.37994
 412.50;20063.425;  480.732;47624.639; 0.38155
 413.09;20302.912;  484.505;48110.411; 0.38077
 413.68;20486.790;  482.467;48573.257; 0.38094
 414.27;20692.451;  487.472;48936.919; 0.37983
 414.86;20838.188;  462.470;49236.309; 0.37907
 415.45;21104.999;  452.555;49687.411; 0.37730
 416.04;21365.696;  462.743;50083.734; 0.37546
 416.63;21447.574;  468.551;50542.275; 0.37782
 417.22;21443.661;  461.867;50754.683; 0.37966
 417.81;21506.142;  462.159;51068.477; 0.38108
 418.40;21743.021;  476.694;51393.675; 0.37917
 418.99;21966.909;  477.832;51737.830; 0.37756
 419.58;22104.524;  462.218;51969.382; 0.37656
 420.17;22165.885;  452.952;52248.392; 0.37757
 420.76;22199.682;  458.593;52499.836; 0.37907
 421.35;22294.947;  472.988;53005.769; 0.38154
 421.94;22359.352;  474.287;53203.501; 0.38190
 422.53;22524.509;  469.601;53402.299; 0.38022
 423.12;22606.732;  471.552;53493.823; 0.37938
 423.71;22738.808;  463.366;53670.857; 0.37815
 424.30;22734.478;  471.573;53819.883; 0.37954
 424.89;22710.599;  477.611;53888.037; 0.38063
 425.48;22579.637;  477.854;53974.356; 0.38390
 426.07;22471.034;  465.438;53940.695; 0.38562
 426.66;22442.211;  460.097;54040.507; 0.38694
 427.25;22494.173;  453.014;53995.096; 0.38546
 427.84;22380.488;  450.549;53912.043; 0.38700
 428.43;22297.226;  452.848;53711.442; 0.38705
 429.02;22139.011;  457.772;53797.552; 0.39097
 429.61;22139.938;  448.720;53826.107; 0.39107
 430.20;21983.631;  425.820;53758.443; 0.39339
 430.79;21807.764;  437.001;53531.580; 0.39523
 431.38;21640.083;  442.471;53315.543; 0.39695
 431.97;21496.007;  451.391;53001.434; 0.39743
 432.55;21379.249;  445.807;52690.011; 0.39720
 433.14;21242.318;  441.412;52704.411; 0.40011
 433.73;21072.340;  432.971;52655.054; 0.40316
 434.32;20974.927;  424.624;52606.263; 0.40470
 434.91;20745.403;  423.161;52233.737; 0.40645
 435.50;20618.210;  418.064;51971.869; 0.40691
 436.09;20421.675;  418.432;51687.970; 0.40876
 436.68;20260.371;  422.559;51624.303; 0.41179
 437.27;20116.221;  439.214;51661.122; 0.41550
 437.86;19848.358;  433.576;51508.561; 0.42008
 438.45;19722.452;  436.794;51330.326; 0.42143
 439.04;19564.762;  419.148;51043.637; 0.42229
 439.62;19465.468;  412.025;51000.963; 0.42408
 440.21;19272.581;  413.441;50885.373; 0.42753
 440.80;19175.410;  430.263;51024.538; 0.43121
 441.39;19041.348;  449.560;51081.161; 0.43510
 441.98;18950.505;  447.874;51020.625; 0.43668
 442.57;18742.822;  436.530;50797.219; 0.43949
 443.16;18624.883;  425.660;50702.578; 0.44132
 443.75;18406.582;  431.481;50788.909; 0.44739
 444.33;18266.392;  435.018;50969.383; 0.45240
 444.92;18183.687;  440.355;50892.685; 0.45385
 445.51;18115.707;  417.614;50850.986; 0.45479
 446.10;18019.314;  410.612;51056.876; 0.45882
 446.69;17886.007;  404.712;51275.545; 0.46390
 447.28;17826.202;  420.929;51457.726; 0.46720
 447.87;17648.203;  412.657;51329.383; 0.47044
 448.45;17503.587;  413.036;51412.748; 0.47481
 449.04;17323.501;  390.874;51445.980; 0.47931
 449.63;17217.161;  386.972;51646.289; 0.48368
 450.22;17139.347;  381.501;51835.467; 0.48720
 450.81;17084.766;  386.090;52100.884; 0.49093
 451.40;17092.702;  391.666;52058.120; 0.49047
 451.98;16960.020;  398.229;52052.065; 0.49400
 452.57;16887.431;  403.856;52211.469; 0.49734
 453.16;16634.650;  401.626;52273.023; 0.50453
 453.75;16479.346;  391.994;52359.708; 0.50925
 454.34;16343.347;  388.814;52215.013; 0.51167
 454.93;16217.390;  395.232;52494.699; 0.51757
 455.51;16097.261;  391.805;52615.216; 0.52181
 456.10;15934.178;  402.670;52907.445; 0.52899
 456.69;15902.122;  396.116;53041.712; 0.53086
 457.28;15784.282;  403.304;53288.203; 0.53635
 457.87;15707.426;  395.902;53216.666; 0.53779
 458.45;15623.170;  396.108;53304.691; 0.54091
 459.04;15558.899;  388.965;53401.373; 0.54339
 459.63;15469.031;  395.666;53676.141; 0.54836
 460.22;15337.036;  396.420;53639.128; 0.55189
 460.80;15292.036;  400.600;53692.823; 0.55373
 461.39;15229.764;  392.483;53895.895; 0.55703
 461.98;15314.695;  393.792;54364.115; 0.55836
 462.57;15283.909;  398.874;54782.941; 0.56272
 463.16;15272.272;  397.668;55197.607; 0.56633
 463.74;15111.876;  387.726;55673.212; 0.57458
 464.33;15079.093;  376.102;56213.777; 0.57952
 464.92;15013.035;  370.427;56547.398; 0.58394
 465.51;15020.025;  357.831;56911.710; 0.58626
 466.09;15080.253;  358.204;57352.888; 0.58787
 466.68;15112.512;  361.518;57898.436; 0.59113
 467.27;15152.717;  372.331;58292.638; 0.59315
 467.86;15156.814;  368.243;58560.733; 0.59494
 468.44;15244.012;  363.094;58919.922; 0.59495
 469.03;15224.913;  361.882;59322.152; 0.59845
 469.62;15217.498;  367.807;59788.037; 0.60222
 470.20;15222.493;  365.300;60231.337; 0.60524
 470.79;15256.350;  374.762;60677.863; 0.60769
 471.38;15320.658;  358.816;61146.166; 0.60883
 471.97;15288.236;  359.020;61564.389; 0.61275
 472.55;15264.870;  350.111;61933.679; 0.61585
 473.14;15221.803;  362.234;62406.602; 0.62070
 473.73;15193.776;  355.473;62971.535; 0.62530
 474.31;15241.730;  347.428;63489.444; 0.62730
 474.90;15259.894;  350.797;63899.238; 0.62965
 475.49;15319.226;  352.737;64160.914; 0.62976
 476.07;15324.610;  357.870;64473.326; 0.63184
 476.66;15255.823;  347.892;64752.829; 0.63550
 477.25;15248.370;  340.581;65000.332; 0.63722
 477.84;15242.240;  352.761;65155.193; 0.63871
 478.42;15282.338;  344.733;65155.945; 0.63737
 479.01;15266.395;  344.681;65156.001; 0.63783
 479.60;15253.248;  330.210;65156.511; 0.63789
 480.18;15199.357;  334.265;65158.257; 0.63957
 480.77;15188.602;  342.135;65159.480; 0.64007
 481.35;15163.493;  347.900;65159.373; 0.64093
 481.94;15185.305;  344.738;65159.188; 0.64022
 482.53;15059.386;  335.059;65159.923; 0.64371
 483.11;14979.519;  332.000;65160.709; 0.64600
 483.70;14811.213;  318.067;65161.719; 0.65070
 484.29;14856.846;  316.585;65163.324; 0.64932
 484.87;14815.752;  306.461;65164.542; 0.65032
 485.46;14849.478;  315.710;65164.272; 0.64952
 486.05;14787.102;  319.958;65162.920; 0.65148
 486.63;14717.095;  321.237;65162.258; 0.65361
 487.22;14613.757;  317.302;65162.909; 0.65665
 487.81;14465.575;  323.288;65164.368; 0.66133
 488.39;14370.016;  331.856;65164.474; 0.66448
 488.98;14271.596;  337.207;65163.733; 0.66766
 489.56;14244.009;  317.228;65164.794; 0.66804
 490.15;14162.280;  310.772;65166.371; 0.67045
 490.74;14013.048;  302.771;65167.454; 0.67496
 491.32;13809.736;  305.937;65168.774; 0.68154
 491.91;13610.714;  316.111;64974.057; 0.68695
 492.49;13436.630;  317.823;64712.314; 0.69095
 493.08;13232.101;  332.939;64167.133; 0.69449
 493.67;13098.517;  325.500;63724.219; 0.69579
 494.25;12923.156;  343.920;63105.848; 0.69804
 494.84;12783.405;  335.724;62474.087; 0.69827
 495.42;12526.078;  338.386;61959.759; 0.70381
 496.01;12410.310;  319.873;61399.648; 0.70346
 496.59;12246.117;  310.443;60754.114; 0.70450
 497.18;12166.488;  311.106;60078.479; 0.70255
 497.77;12001.001;  311.733;59331.632; 0.70321
 498.35;11845.179;  326.966;58841.796; 0.70588
 498.94;11702.258;  324.499;58030.218; 0.70516
 499.52;11567.903;  324.914;57567.186; 0.70684
 500.11;11482.009;  311.275;56906.600; 0.70470
 500.69;11392.316;  304.601;56449.246; 0.70447
 501.28;11313.447;  315.149;55764.708; 0.70257
 501.86;11174.898;  317.653;55155.772; 0.70336
 502.45;11083.196;  338.264;54632.693; 0.70355
 503.03;10981.153;  328.939;54106.656; 0.70316
 503.62;10934.227;  339.385;53665.090; 0.70184
 504.20;10922.114;  326.215;53123.968; 0.69748
 504.79;10880.309;  326.766;52666.148; 0.69543
 505.37;10882.676;  326.582;52358.543; 0.69277
 505.96;10776.551;  332.269;51859.105; 0.69315
 506.55;10793.974;  327.706;51491.158; 0.68917
 507.13;10752.272;  315.837;51254.709; 0.68850
 507.72;10857.979;  312.954;51138.387; 0.68303
 508.30;10989.867;  319.265;50944.634; 0.67618
 508.89;11085.387;  316.460;50626.145; 0.66948
 509.47;11208.975;  308.593;50383.056; 0.66217
 510.05;11324.119;  311.037;50305.214; 0.65701
 510.64;11514.767;  312.992;50205.541; 0.64875
 511.22;11625.699;  326.961;50242.492; 0.64521
 511.81;11798.384;  323.186;50282.527; 0.63886
 512.39;11962.799;  329.747;50266.280; 0.63272
 512.98;12136.978;  310.647;50213.110; 0.62527
 513.56;12275.850;  306.947;50200.284; 0.61999
 514.15;12491.095;  297.484;50225.841; 0.61221
 514.73;12737.924;  293.306;50310.339; 0.60414
 515.32;12997.294;  298.909;50412.714; 0.59621
 515.90;13265.729;  306.909;50529.464; 0.58833
 516.49;13487.552;  321.223;50576.262; 0.58171
 517.07;13684.110;  323.415;50501.804; 0.57469
 517.66;13873.937;  325.663;50468.951; 0.56833
 518.24;14076.427;  330.491;50581.443; 0.56297
 518.82;14254.429;  322.791;50433.118; 0.55593
 519.41;14472.575;  321.449;50483.238; 0.54958
 519.99;14815.647;  304.901;50520.942; 0.53915
 520.58;15158.563;  313.039;50964.514; 0.53300
 521.16;15490.876;  316.114;51139.212; 0.52494
 521.75;15801.793;  315.579;51354.849; 0.51796
 522.33;16056.472;  314.722;51552.832; 0.51254
 522.91;16312.129;  303.280;51724.449; 0.50678
 523.50;16516.776;  304.661;51708.091; 0.50115
 524.08;16855.219;  292.957;51816.521; 0.49289
 524.67;17254.870;  296.699;52029.160; 0.48438
 525.25;17603.018;  294.898;52244.306; 0.47733
 525.83;17936.392;  300.195;52281.679; 0.46944
 526.42;18158.376;  299.604;52255.985; 0.46379
 527.00;18389.388;  297.414;52315.968; 0.45867
 527.59;18672.162;  293.742;52194.390; 0.45086
 528.17;19002.573;  296.702;52169.461; 0.44296
 528.75;19338.899;  314.407;52237.781; 0.43605
 529.34;19565.987;  317.963;52410.206; 0.43239
 529.92;19823.473;  322.096;52599.701; 0.42825
 530.50;19962.537;  308.099;52577.086; 0.42478
 531.09;20205.708;  310.277;52580.588; 0.41950
 531.67;20406.509;  319.699;52493.409; 0.41454
 532.25;20707.733;  331.224;52474.618; 0.40807
 532.84;20996.225;  319.265;52286.406; 0.40024
 533.42;21190.613;  303.579;52069.121; 0.39416
 534.00;21411.432;  296.379;51800.283; 0.38725
 534.59;21501.166;  306.923;51692.027; 0.38462
 535.17;21673.447;  307.396;51484.292; 0.37935
 535.75;21822.870;  311.833;51399.345; 0.37565
 536.34;22069.499;  327.170;51106.314; 0.36838
 536.92;22240.186;  323.362;50970.357; 0.36378
 537.50;22318.875;  320.767;50555.361; 0.35862
 538.09;22359.796;  304.234;50224.272; 0.35476
 538.67;22349.863;  307.957;49849.711; 0.35172
 539.25;22467.043;  292.004;49517.578; 0.34633
 539.84;22569.932;  298.382;49195.084; 0.34153
 540.42;22795.975;  287.620;48747.408; 0.33304
 541.00;22940.173;  304.712;48328.615; 0.32667
 541.59;22983.357;  293.453;47996.146; 0.32271
 542.17;22972.872;  303.713;47681.974; 0.32014
 542.75;23003.336;  301.687;47449.085; 0.31740
 543.33;23150.003;  321.928;47035.436; 0.31097
 543.92;23294.351;  322.791;46647.473; 0.30462
 544.50;23296.221;  319.637;46212.001; 0.30045
 545.08;23395.973;  303.653;45900.067; 0.29546
 545.67;23411.439;  304.594;45544.519; 0.29178
 546.25;23604.852;  306.855;45243.598; 0.28528
 546.83;23637.482;  305.919;44881.223; 0.28115
 547.41;23756.890;  307.185;44485.963; 0.27508
 548.00;23840.673;  304.048;44073.416; 0.26943
 548.58;23881.285;  293.554;43651.340; 0.26438
 549.16;23853.251;  273.252;43462.973; 0.26284
 549.74;23925.952;  276.221;43125.006; 0.25811
 550.33;24055.326;  287.338;42789.017; 0.25241
 550.91;24187.444;  287.502;42328.145; 0.24527
 551.49;24224.002;  275.114;42084.067; 0.24198
 552.07;24289.615;  281.527;41894.675; 0.23887
 552.66;24375.210;  296.715;41696.915; 0.23537
 553.24;24453.770;  301.874;41407.799; 0.23095
 553.82;24532.715;  287.046;41262.389; 0.22789
 554.40;24631.981;  287.502;41018.645; 0.22353
 554.98;24685.842;  286.839;40927.197; 0.22159
 555.57;24780.067;  295.511;40724.442; 0.21780
 556.15;24901.490;  295.794;40729.857; 0.21571
 556.73;25013.839;  289.872;40584.856; 0.21213
 557.31;25230.105;  280.087;40487.094; 0.20723
 557.89;25357.921;  267.680;40402.230; 0.20401
 558.48;25569.171;  270.725;40389.487; 0.20025
 559.06;25705.662;  269.279;40492.969; 0.19903
 559.64;25898.045;  288.172;40421.363; 0.19510
 560.22;26081.496;  308.276;40298.501; 0.19079
 560.80;26195.777;  311.749;40155.433; 0.18733
 561.39;26381.179;  300.174;40123.139; 0.18381
 561.97;26525.523;  304.256;40118.465; 0.18138
 562.55;26788.323;  305.864;40159.584; 0.17751
 563.13;27024.890;  307.652;40244.814; 0.17459
 563.71;27275.718;  295.320;40343.674; 0.17154
 564.29;27423.187;  296.315;40286.513; 0.16855
 564.88;27565.390;  280.495;40218.374; 0.16546
 565.46;27657.152;  277.260;40267.767; 0.16453
 566.04;27886.295;  269.464;40338.574; 0.16164
 566.62;28147.492;  292.162;40520.457; 0.15962
 567.20;28445.045;  292.265;40647.678; 0.15638
 567.78;28626.115;  300.170;40851.754; 0.15582
 568.36;28817.782;  300.837;41002.754; 0.15451
 568.94;28992.898;  296.460;41004.189; 0.15185
 569.53;29206.573;  295.816;41099.192; 0.14964
 570.11;29451.880;  283.902;41113.488; 0.14607
 570.69;29736.650;  278.869;41248.245; 0.14326
 571.27;29917.667;  279.854;41227.262; 0.14038
 571.85;30063.298;  279.584;41295.220; 0.13897
 572.43;30226.658;  299.078;41479.213; 0.13862
 573.01;30505.661;  288.199;41566.526; 0.13546
 573.59;30713.452;  284.931;41522.011; 0.13201
 574.17;30884.712;  270.419;41423.650; 0.12848
 574.76;31008.127;  278.826;41529.098; 0.12787
 575.34;31250.024;  274.920;41725.997; 0.12652
 575.92;31454.555;  271.771;41808.186; 0.12451
 576.50;31581.864;  265.398;41828.507; 0.12294
 577.08;31659.075;  261.206;41866.048; 0.12224
 577.66;31769.086;  250.776;41875.013; 0.12078
 578.24;31918.255;  252.747;41879.155; 0.11878
 578.82;32037.672;  257.942;41897.583; 0.11736
 579.40;32266.966;  266.978;41903.210; 0.11432
 579.98;32489.051;  273.567;41841.961; 0.11070
 580.56;32713.737;  281.852;41853.319; 0.10782
 581.14;32834.250;  291.659;41917.834; 0.10691
 581.72;32921.333;  280.280;42082.244; 0.10743
 582.30;32983.911;  273.151;42074.467; 0.10650
 582.88;33098.729;  274.650;42152.288; 0.10579
 583.46;33217.909;  282.363;42189.821; 0.10463
 584.04;33393.521;  282.956;42171.457; 0.10213
 584.62;33640.532;  265.125;42197.830; 0.09913
 585.21;33784.147;  267.265;42241.428; 0.09772
 585.79;33901.077;  273.754;42392.009; 0.09778
 586.37;33922.376;  277.118;42415.309; 0.09775
 586.95;34131.237;  275.522;42455.787; 0.09548
 587.53;34356.304;  269.979;42469.819; 0.09273
 588.11;34554.392;  278.442;42585.262; 0.09142
 588.69;34670.971;  282.733;42557.865; 0.08968
 589.27;34733.243;  283.424;42506.477; 0.08836
 589.85;34819.715;  276.026;42443.602; 0.08661
 590.43;34875.391;  271.715;42599.939; 0.08751
 591.01;34990.292;  278.076;42722.853; 0.08734
 591.59;35130.380;  288.299;42936.945; 0.08780
 592.16;35332.426;  287.924;42891.657; 0.08483
 592.74;35517.166;  291.617;42886.045; 0.08250
 593.32;35588.768;  293.193;42739.948; 0.08012
 593.90;35664.798;  297.895;42708.966; 0.07888
 594.48;35611.526;  288.777;42603.037; 0.07843
 595.06;35669.943;  285.245;42684.475; 0.07854
 595.64;35688.366;  272.769;42709.242; 0.07854
 596.22;35872.267;  276.890;42757.472; 0.07680
 596.80;35870.094;  268.138;42505.619; 0.07422
 597.38;35946.378;  264.245;42457.558; 0.07279
 597.96;35871.725;  262.869;42299.911; 0.07207
 598.54;35936.218;  268.057;42320.734; 0.07151
 599.12;36008.236;  272.769;42174.074; 0.06913
 599.70;36036.109;  272.156;42133.628; 0.06837
 600.28;35979.017;  269.178;41999.881; 0.06767
 600.86;35888.723;  273.568;41898.236; 0.06772
 601.44;35808.471;  279.130;41816.989; 0.06786
 602.02;35762.132;  273.135;41601.984; 0.06616
 602.59;35821.328;  269.019;41487.164; 0.06422
 603.17;35906.801;  254.435;41427.991; 0.06253
 603.75;35882.151;  264.600;41407.036; 0.06263
 604.33;35672.811;  268.544;41269.041; 0.06373
 604.91;35507.078;  272.574;41056.648; 0.06352
 605.49;35529.843;  271.546;40985.067; 0.06248
 606.07;35598.024;  254.900;40828.877; 0.05994
 606.65;35554.184;  260.422;40696.701; 0.05907
 607.23;35402.592;  264.441;40448.820; 0.05828
 607.80;35341.804;  277.156;40221.379; 0.05658
 608.38;35198.598;  277.256;40025.464; 0.05623
 608.96;35198.483;  285.786;39921.000; 0.05510
 609.54;34885.174;  288.246;39743.725; 0.05707
 610.12;34805.157;  283.928;39528.375; 0.05569
 610.70;34450.764;  273.259;39095.265; 0.05534
 611.28;34315.569;  259.195;38813.390; 0.05387
 611.85;34101.721;  265.841;38433.913; 0.05232
 612.43;33817.414;  260.695;38304.961; 0.05451
 613.01;33588.623;  263.202;38019.161; 0.05421
 613.59;33362.584;  249.299;37795.112; 0.05456
 614.17;33420.873;  240.914;37668.085; 0.05231
 614.75;33287.322;  222.778;37521.205; 0.05233
 615.32;33084.575;  209.277;37291.775; 0.05230
 615.90;32833.023;  219.080;36866.572; 0.05064
 616.48;32733.763;  232.952;36658.988; 0.04952
 617.06;32525.938;  255.157;36308.488; 0.04814
 617.64;32294.923;  246.140;36072.812; 0.04839
 618.22;31924.622;  241.049;35666.522; 0.04848
 618.79;31802.044;  228.178;35515.632; 0.04829
 619.37;31713.759;  227.104;35180.352; 0.04536
 619.95;31542.052;  231.387;34894.600; 0.04418
 620.53;31109.956;  218.869;34491.494; 0.04511
 621.11;30743.059;  206.529;34156.975; 0.04603
 621.68;30652.779;  201.116;33920.700; 0.04427
 622.26;30636.549;  202.843;33803.106; 0.04299
 622.84;30443.823;  212.594;33643.042; 0.04369
 623.42;30123.182;  214.208;33340.072; 0.04437
 623.99;29941.267;  232.130;33128.823; 0.04426
 624.57;29804.312;  239.695;32874.211; 0.04290
 625.15;29630.707;  249.244;32723.283; 0.04346
 625.73;29386.535;  235.066;32483.448; 0.04385
 626.30;29207.554;  228.444;32290.122; 0.04390
 626.88;28994.043;  228.031;32032.596; 0.04361
 627.46;28853.874;  230.061;31766.787; 0.04209
 628.04;28594.277;  242.419;31549.234; 0.04306
 628.61;28440.482;  241.899;31249.103; 0.04124
 629.19;28252.830;  244.829;31015.066; 0.04085
 629.77;28174.529;  231.831;30736.758; 0.03810
 630.35;28078.934;  234.217;30562.869; 0.03711
 630.92;27826.303;  232.092;30375.921; 0.03838
 631.50;27524.502;  220.757;30199.145; 0.04059
 632.08;27226.695;  206.521;29949.680; 0.04170
 632.66;27098.155;  196.801;29744.460; 0.04075
 633.23;26930.114;  216.776;29426.430; 0.03880
 633.81;26822.380;  225.566;29138.020; 0.03626
 634.39;26581.811;  220.298;28844.754; 0.03577
 634.96;26515.521;  221.956;28624.791; 0.03351
 635.54;26371.921;  216.680;28606.896; 0.03561
 636.12;26259.622;  214.735;28334.976; 0.03330
 636.69;26043.254;  204.526;28222.591; 0.03517
 637.27;25754.192;  199.403;27913.834; 0.03523
 637.85;25581.429;  217.219;27696.062; 0.03478
 638.42;25283.355;  206.286;27392.989; 0.03508
 639.00;25109.796;  223.367;27259.457; 0.03598
 639.58;24849.264;  209.789;26981.612; 0.03605
 640.15;24679.491;  222.891;26790.445; 0.03596
 640.73;24533.607;  204.119;26492.226; 0.03363
 641.31;24464.057;  216.013;26471.006; 0.03454
 641.88;24296.173;  210.908;26285.787; 0.03447
 642.46;24159.955;  226.803;26132.901; 0.03440
 643.04;23926.071;  214.697;25934.349; 0.03531
 643.61;23867.854;  223.925;25817.463; 0.03441
 644.19;23709.637;  209.153;25659.577; 0.03462
 644.77;23653.753;  224.048;25468.358; 0.03240
 645.34;23526.869;  211.943;25293.805; 0.03173
 645.92;23307.319;  214.504;25070.586; 0.03196
 646.49;23183.101;  218.399;24938.033; 0.03198
 647.07;22994.884;  220.293;24745.814; 0.03217
 647.65;22913.000;  224.188;24564.928; 0.03052
 648.22;22692.116;  218.082;24391.042; 0.03165
 648.80;22609.566;  227.310;24368.156; 0.03285
 649.37;22531.015;  227.872;24339.937; 0.03387
 649.95;22484.464;  227.433;24242.051; 0.03301
 650.53;22379.580;  209.328;24121.165; 0.03284
 651.10;22316.363;  214.222;24054.279; 0.03287
 651.68;22216.479;  211.450;24020.060; 0.03421
 652.25;22125.262;  221.012;23899.174; 0.03382
 652.83;22024.711;  211.573;23700.955; 0.03215
 653.41;22016.161;  208.468;23524.069; 0.02904
 653.98;22010.610;  212.362;23340.850; 0.02573
 654.56;21893.393;  211.590;23307.630; 0.02744
 655.13;21743.842;  208.818;23285.744; 0.03003
 655.71;21582.959;  207.379;23284.525; 0.03326
 656.28;21515.408;  194.941;23185.639; 0.03276
 656.86;21439.524;  188.169;22962.753; 0.03006
 657.43;21420.307;  190.397;22872.868; 0.02874
 658.01;21455.090;  212.958;22793.315; 0.02653
 658.58;21553.206;  207.519;22876.096; 0.02611
 659.16;21555.655;  211.747;22798.876; 0.02459
 659.74;21532.438;  196.309;22777.324; 0.02463
 660.31;21389.554;  204.203;22714.438; 0.02634
 660.89;21277.670;  198.098;22687.885; 0.02812
 661.46;21188.786;  206.659;22545.999; 0.02722
 662.04;21162.902;  208.554;22516.780; 0.02719
 662.61;21224.685;  207.448;22500.894; 0.02560
 663.19;21293.801;  206.676;22626.342; 0.02661
 663.76;21390.584;  209.571;22600.456; 0.02412
 664.34;21366.700;  211.132;22526.237; 0.02317
 664.91;21341.149;  214.027;22413.684; 0.02151
 665.49;21285.265;  216.922;22441.798; 0.02321
 666.06;21288.715;  213.150;22513.246; 0.02453
 666.64;21310.497;  212.044;22555.693; 0.02490
 667.21;21352.614;  216.606;22500.140; 0.02296
 667.79;21327.730;  204.167;22400.588; 0.02152
 668.36;21270.512;  201.395;22402.702; 0.02273
 668.93;21268.295;  202.290;22421.149; 0.02314
 669.51;21167.411;  198.184;22426.263; 0.02532
 670.08;21183.194;  192.412;22387.044; 0.02422
 670.66;21108.310;  189.307;22273.825; 0.02355
 671.23;21318.426;  213.201;22361.606; 0.02095
 671.81;21334.876;  219.763;22403.720; 0.02145
 672.38;21366.325;  224.324;22501.167; 0.02271
 672.96;21240.774;  213.552;22510.281; 0.02546
 673.53;21259.890;  213.113;22482.395; 0.02452
 674.10;21332.340;  213.008;22524.843; 0.02386
 674.68;21418.123;  228.236;22505.290; 0.02173
 675.25;21472.572;  221.131;22417.404; 0.01889
 675.83;21368.688;  215.692;22370.185; 0.02009
 676.40;21259.471;  203.253;22300.299; 0.02095
 676.98;21145.254;  209.148;22323.413; 0.02378
 677.55;21106.036;  210.043;22281.527; 0.02377
 678.12;21144.152;  223.937;22260.975; 0.02259
 678.70;21103.602;  221.832;22236.089; 0.02294
 679.27;21174.385;  229.060;22163.870; 0.02005
 679.85;21140.501;  216.621;22124.984; 0.01997
 680.42;21162.950;  216.516;22133.431; 0.01967
 680.99;21061.399;  192.744;22099.212; 0.02108
 681.57;21033.182;  198.305;22028.659; 0.02027
 682.14;20904.632;  205.866;21848.773; 0.01937
 682.71;20901.081;  210.761;21795.554; 0.01838
 683.29;20789.197;  200.656;21706.668; 0.01893
 683.86;20680.980;  185.884;21546.116; 0.01796
 684.43;20450.429;  198.112;21362.230; 0.01913
 685.01;20326.879;  197.006;21197.011; 0.01838
 685.58;20329.995;  206.234;21272.458; 0.01988
 686.16;20378.778;  206.462;21269.239; 0.01876
 686.73;20330.560;  215.023;21397.686; 0.02245
 687.30;20305.343;  207.585;21388.467; 0.02280
 687.88;20220.126;  217.479;21321.914; 0.02329
 688.45;20186.575;  210.707;21118.362; 0.01980
 689.02;20088.358;  213.602;21022.142; 0.01994
 689.60;20071.141;  190.497;20889.257; 0.01751
 690.17;20098.590;  199.391;20926.704; 0.01771
 690.74;20110.040;  189.619;20805.485; 0.01490
 691.31;20064.489;  204.181;20824.932; 0.01632
 691.89;19965.272;  191.742;20754.713; 0.01700
 692.46;19878.721;  212.637;20700.494; 0.01778
 693.03;19844.504;  229.198;20611.941; 0.01667
 693.61;19776.953;  234.759;20426.722; 0.01421
 694.18;19704.069;  237.320;20424.503; 0.01578
 694.75;19577.185;  206.882;20414.950; 0.01839
 695.32;19538.635;  208.110;20458.064; 0.02018
 695.90;19431.084;  203.004;20312.512; 0.01947
 696.47;19446.867;  203.899;20210.626; 0.01690
 697.04;19343.983;  214.460;20060.073; 0.01596
 697.62;19335.766;  213.355;20039.187; 0.01569
 698.19;19254.549;  229.250;19951.301; 0.01562
 698.76;19271.331;  211.144;19960.082; 0.01542
 699.33;19255.447;  210.706;19883.196; 0.01408
 699.91;19167.230;  196.600;19795.977; 0.01416
 700.48;19088.013;  206.162;19674.091; 0.01328
 701.05;18980.796;  208.056;19645.538; 0.01511
 701.62;18933.912;  232.951;19536.652; 0.01378
 702.20;18824.695;  235.179;19463.767; 0.01468
 702.77;18685.144;  232.073;19314.881; 0.01457
 703.34;18598.260;  217.301;19303.995; 0.01636
 703.91;18616.043;  214.196;19161.775; 0.01269
 704.48;18578.826;  220.091;19054.223; 0.01110
 705.06;18491.608;  212.652;18964.004; 0.01108
 705.63;18409.058;  221.213;18940.118; 0.01250
 706.20;18343.507;  214.441;18934.565; 0.01393
 706.77;18334.623;  221.336;18864.679; 0.01253
 707.34;18316.073;  215.564;18821.793; 0.01197
 707.92;18219.855;  205.792;18710.907; 0.01168
 708.49;18056.638;  193.353;18575.022; 0.01242
 709.06;17949.421;  193.248;18466.136; 0.01246
 709.63;17931.204;  194.476;18431.916; 0.01209
 710.20;17907.320;  191.037;18446.697; 0.01302
 710.77;17825.102;  187.932;18338.145; 0.01245
 711.35;17884.218;  185.826;18305.592; 0.01022
 711.92;17868.668;  205.721;18271.706; 0.00980
 712.49;17875.784;  207.616;18372.487; 0.01204
 713.06;17821.233;  215.844;18405.934; 0.01419
 713.63;17942.016;  209.405;18498.382; 0.01342
 714.20;18046.799;  212.300;18556.829; 0.01225
 714.78;18124.915;  209.528;18487.277; 0.00870
 715.35;18093.364;  205.756;18407.724; 0.00757
 715.92;17999.480;  207.317;18351.838; 0.00852
 716.49;17862.597;  222.545;18343.285; 0.01168
 717.06;17735.046;  226.106;18273.400; 0.01315
 717.63;17650.162;  217.334;18198.847; 0.01346
 718.20;17559.278;  210.895;18175.294; 0.01515
 718.77;17493.728;  224.790;18170.075; 0.01668
 719.35;17546.844;  226.351;18153.189; 0.01494
 719.92;17570.960;  211.913;18038.303; 0.01154
 720.49;17613.076;  197.474;17879.084; 0.00658
 721.06;17482.859;  177.369;17774.532; 0.00726
 721.63;17595.641;  190.930;17799.979; 0.00507
 722.20;17603.757;  195.825;17861.426; 0.00638
 722.77;17635.207;  203.386;17825.540; 0.00472
 723.34;17508.990;  196.947;17821.321; 0.00777
 723.91;17396.439;  205.509;17813.102; 0.01040
 724.48;17350.888;  222.070;17777.883; 0.01069
 725.05;17259.671;  212.964;17617.997; 0.00903
 725.62;17276.121;  195.192;17490.778; 0.00542
 726.20;17286.570;  186.754;17461.892; 0.00443
 726.77;17304.353;  192.982;17446.339; 0.00359
 727.34;17245.135;  199.210;17412.787; 0.00425
 727.91;17159.585;  209.104;17361.567; 0.00514
 728.48;17073.034;  214.999;17354.015; 0.00718
 729.05;17066.150;  215.560;17353.795; 0.00735
 729.62;17077.600;  192.788;17320.910; 0.00621
 730.19;17091.383;  185.683;17297.024; 0.00525
 730.76;17132.832;  188.578;17324.138; 0.00488
 731.33;17056.948;  211.472;17306.252; 0.00638
 731.90;16995.731;  215.034;17274.033; 0.00714
 732.47;16910.180;  206.261;17242.147; 0.00855
 733.04;16881.963;  191.156;17245.594; 0.00936
 733.61;16815.412;  168.051;17256.042; 0.01135
 734.18;16778.862;  173.945;17191.156; 0.01065
 734.75;16774.311;  184.507;17077.270; 0.00786
 735.32;16792.761;  211.401;16955.384; 0.00424
 735.89;16761.877;  203.963;16851.831; 0.00235
 736.46;16599.993;  212.191;16734.945; 0.00356
 737.03;16467.109;  203.085;16674.393; 0.00550
 737.60;16319.558;  203.647;16580.840; 0.00698
 738.17;16326.674;  173.208;16558.621; 0.00619
 738.74;16300.790;  184.103;16523.735; 0.00597
 739.31;16271.906;  185.331;16430.849; 0.00427
 739.88;16115.689;  195.225;16300.630; 0.00502
 740.45;16080.472;  176.120;16234.411; 0.00418
 741.02;16002.255;  174.348;16293.858; 0.00793
 741.59;16020.037;  171.909;16337.305; 0.00861
 742.15;16079.820;  177.804;16325.753; 0.00667
 742.72;16134.936;  185.365;16376.867; 0.00654
 743.29;16218.052;  187.593;16351.648; 0.00360
 743.86;16145.502;  195.154;16298.095; 0.00414
 744.43;16113.285;  197.049;16220.543; 0.00292
 745.00;16036.401;  201.277;16240.323; 0.00556
 745.57;16014.183;  209.172;16261.771; 0.00675
 746.14;15992.966;  201.733;16198.552; 0.00562
 746.71;16037.416;  208.294;16179.666; 0.00389
 747.28;16048.532;  196.522;16170.446; 0.00333
 747.85;16036.981;  172.417;16124.227; 0.00238
 748.42;16002.764;  173.645;16103.675; 0.00276
 748.98;15932.213;  177.206;16075.455; 0.00393
 749.55;15845.663;  197.767;16011.569; 0.00458
 750.12;15808.445;  197.662;16015.683; 0.00573
 750.69;15769.561;  204.890;15955.131; 0.00515
 751.26;15780.678;  216.118;15910.245; 0.00360
 751.83;15742.794;  206.013;15821.026; 0.00218
 752.40;15752.243;  204.907;15769.807; 0.00049
 752.97;15727.026;  192.802;15780.587; 0.00149
 753.53;15654.475;  195.697;15773.035; 0.00332
 754.10;15577.258;  187.925;15706.815; 0.00364
 754.67;15553.041;  185.486;15666.263; 0.00319
 755.24;15519.157;  192.714;15616.044; 0.00274
 755.81;15489.273;  200.608;15583.491; 0.00267
 756.38;15399.056;  223.503;15510.272; 0.00317
 756.94;15343.172;  215.064;15482.386; 0.00398
 757.51;15258.621;  204.292;15502.833; 0.00699
 758.08;15246.404;  196.520;15545.281; 0.00854
 758.65;15219.520;  213.748;15443.728; 0.00644
 759.22;15189.636;  220.643;15351.176; 0.00466
 759.79;15031.752;  205.538;15180.623; 0.00434
 760.35;14814.868;  191.432;15130.404; 0.00927
 760.92;14656.984;  201.994;14987.518; 0.00982
 761.49;14621.434;  208.555;14849.965; 0.00683
 762.06;14613.216;  211.783;14641.079; 0.00084
 762.63;14558.333;  201.011;14500.527;-0.00175
 763.19;14390.115;  203.239;14469.641; 0.00243
 763.76;14299.231;  215.133;14423.422; 0.00381
 764.33;14144.014;  219.695;14294.202; 0.00466
 764.90;14031.130;  218.589;14107.650; 0.00240
 765.46;13850.246;  197.817;13914.097; 0.00203
 766.03;13715.696;  196.045;13749.878; 0.00110
 766.60;13531.812;  197.940;13624.992; 0.00302
 767.17;13390.261;  205.501;13465.773; 0.00248
 767.73;13214.377;  207.063;13413.220; 0.00659
 768.30;13132.493;  206.624;13205.001; 0.00243
 768.87;12995.276;  215.185;13045.782; 0.00171
 769.44;12912.059;  213.413;12836.229;-0.00260
 770.00;12721.508;  215.975;12686.677;-0.00121
 770.57;12525.624;  216.536;12525.791; 0.00001
 771.14;12283.407;  213.430;12350.238; 0.00240
 771.71;12086.190;  198.325;12122.686; 0.00133
 772.27;11843.306;  206.220;11935.800; 0.00344
 772.84;11702.089;  209.448;11715.914; 0.00052
 773.41;11540.871;  213.676;11595.695; 0.00210
 773.97;11418.654;  205.904;11440.809; 0.00086
 774.54;11212.104;  213.798;11314.923; 0.00404
 775.11;11062.553;  232.360;11227.370; 0.00656
 775.67;10896.002;  228.588;11074.818; 0.00722
 776.24;10827.452;  222.482;10902.265; 0.00305
 776.81;10641.235;  220.377;10665.712; 0.00102
 777.38;10538.684;  208.272;10484.160;-0.00230
 777.94;10313.467;  214.166;10350.941; 0.00161
 778.51;10226.249;  199.728;10214.721;-0.00050
 779.08;10100.032;  210.622;10137.835; 0.00166
 779.64;10005.482;  201.517;10058.283; 0.00233
 780.21; 9904.264;  202.745; 9970.064; 0.00294
 780.78; 9847.714;  211.639; 9870.178; 0.00101
 781.34; 9830.830;  212.534; 9787.625;-0.00196
 781.91; 9768.946;  225.762; 9703.406;-0.00299
 782.47; 9700.395;  227.990; 9633.520;-0.00308
 783.04; 9605.845;  238.551; 9482.634;-0.00575
 783.61; 9530.961;  245.779; 9385.415;-0.00686
 784.17; 9425.744;  246.674; 9320.196;-0.00502
 784.74; 9366.193;  236.569; 9240.310;-0.00603
 785.31; 9287.309;  244.797; 9256.090;-0.00150
 785.87; 9211.425;  248.691; 9137.538;-0.00360
 786.44; 9122.208;  252.252; 9126.319; 0.00020
 787.00; 9076.991;  239.480; 9065.766;-0.00055
 787.57; 9067.440;  222.375; 9005.880;-0.00303
 788.14; 9033.890;  242.936; 8941.661;-0.00458
 788.70; 9008.006;  252.831; 8828.442;-0.00900
 789.27; 8977.455;  261.392; 8880.222;-0.00487
 789.83; 8912.238;  247.620; 8836.003;-0.00384
 790.40; 8857.021;  230.182; 8838.117;-0.00095
 790.96; 8767.470;  235.076; 8799.898; 0.00165
 791.53; 8729.919;  229.304; 8766.679; 0.00187
 792.10; 8704.702;  224.866; 8777.126; 0.00369
 792.66; 8734.818;  219.094; 8720.574;-0.00073
 793.23; 8726.601;  214.988; 8733.688; 0.00036
 793.79; 8710.384;  216.216; 8675.468;-0.00179
 794.36; 8684.500;  210.777; 8660.249;-0.00124
 794.92; 8641.949;  219.339; 8606.363;-0.00184
 795.49; 8615.732;  232.233; 8532.811;-0.00432
 796.05; 8596.181;  243.461; 8505.258;-0.00475
 796.62; 8543.631;  248.023; 8527.372;-0.00085
 797.19; 8544.080;  237.917; 8507.820;-0.00190
 797.75; 8492.863;  226.145; 8453.600;-0.00207
 798.32; 8544.979;  218.373; 8393.714;-0.00796
 798.88; 8552.762;  222.601; 8383.829;-0.00890
 799.45; 8543.211;  224.829; 8436.276;-0.00562
 800.01; 8541.661;  220.391; 8517.723;-0.00125
 800.58; 8687.443;  215.952; 8677.504;-0.00051
 801.14; 8926.893;  222.513; 8916.952;-0.00050
 801.71; 9208.675;  218.074; 9117.399;-0.00443
 802.27; 9412.458;  206.969; 9310.180;-0.00485
 802.84; 9687.241;  188.864; 9480.294;-0.00957
 803.40; 9961.024;  179.758; 9723.075;-0.01070
 803.96;10242.140;  198.986;10006.189;-0.01032
 804.53;10572.256;  210.548;10273.303;-0.01271
 805.09;10958.039;  208.442;10576.417;-0.01570
 805.66;11297.488;  200.670;10926.198;-0.01478
 806.22;11541.271;  172.898;11264.978;-0.01069
 806.79;11809.387;  185.793;11622.426;-0.00704
 807.35;12150.503;  182.354;11886.873;-0.00967
 807.92;12479.952;  214.582;12161.654;-0.01142
 808.48;12762.402;  221.810;12436.768;-0.01143
 809.05;13035.185;  217.705;12708.882;-0.01120
 809.61;13321.301;  213.933;13054.330;-0.00894
 810.17;13667.083;  218.827;13355.110;-0.01019
 810.74;13946.533;  231.055;13671.891;-0.00878
 811.30;14309.316;  226.617;13899.672;-0.01282
 811.87;14619.765;  214.511;14212.453;-0.01246
 812.43;15000.881;  214.406;14571.233;-0.01281
 812.99;15350.330;  216.967;14881.014;-0.01368
 813.56;15644.113;  221.862;15191.462;-0.01294
 814.12;16012.229;  221.090;15523.909;-0.01364
 814.69;16295.012;  216.318;15866.356;-0.01174
 815.25;16686.461;  210.213;16143.804;-0.01454
 815.81;16933.911;  200.774;16302.251;-0.01671
 816.38;17237.360;  196.335;16642.699;-0.01543
 816.94;17406.143;  193.897;16882.479;-0.01342
 817.51;17624.259;  192.791;17283.594;-0.00857
 818.07;17881.375;  201.019;17504.374;-0.00936
 818.63;18245.825;  202.247;17804.155;-0.01076
 819.20;18566.274;  201.808;18033.936;-0.01278
 819.76;18812.723;  209.370;18216.050;-0.01416
 820.32;19015.839;  216.598;18394.831;-0.01459
 820.89;19151.622;  218.159;18583.278;-0.01324
 821.45;19280.072;  193.387;18775.726;-0.01163
 822.01;19375.521;  176.615;18965.173;-0.00938
 822.58;19459.637;  180.843;19065.620;-0.00897
 823.14;19495.753;  194.404;19233.068;-0.00595
 823.70;19652.536;  202.299;19352.182;-0.00676
 824.27;19745.985;  193.194;19462.963;-0.00633
 824.83;19778.435;  215.421;19467.743;-0.00695
 825.39;19678.551;  215.649;19374.524;-0.00684
 825.95;19589.334;  221.211;19316.972;-0.00615
 826.52;19545.783;  191.105;19274.752;-0.00612
 827.08;19397.899;  189.000;19152.200;-0.00559
 827.64;19248.349;  175.895;18949.314;-0.00686
 828.21;18967.798;  175.123;18660.095;-0.00717
 828.77;18663.247;  181.351;18397.542;-0.00629
 829.33;18288.697;  183.579;18029.323;-0.00627
 829.89;17963.480;  181.807;17638.104;-0.00802
 830.46;17608.596;  185.701;17297.218;-0.00783
 831.02;17256.378;  190.596;16895.332;-0.00929
 831.58;16855.494;  201.157;16540.779;-0.00829
 832.15;16394.944;  185.052;16128.893;-0.00719
 832.71;15877.060;  188.280;15811.341;-0.00182
 833.27;15407.843;  178.841;15353.455;-0.00155
 833.83;14901.292;  169.736;14940.569; 0.00116
 834.39;14473.075;  164.297;14394.016;-0.00241
 834.96;14048.191;  162.192;13925.464;-0.00386
 835.52;13688.640;  187.086;13474.578;-0.00694
 836.08;13247.423;  188.981;13047.025;-0.00672
 836.64;12770.206;  194.876;12619.473;-0.00524
 837.21;12323.989;  198.770;12148.920;-0.00632
 837.77;11960.771;  198.332;11759.367;-0.00750
 838.33;11539.554;  206.893;11447.148;-0.00356
 838.89;11164.337;  203.121;11001.596;-0.00650
 839.45;10741.786;  205.349;10589.710;-0.00631
 840.02;10360.902;  209.910;10134.490;-0.00980
 840.58; 9918.018;  201.805; 9836.938;-0.00364
 841.14; 9518.801;  224.699; 9457.052;-0.00290
 841.70; 9122.584;  220.594; 9049.833;-0.00356
 842.26; 8743.367;  218.155; 8613.280;-0.00668
 842.82; 8329.149;  209.050; 8233.061;-0.00517
 843.39; 7875.599;  200.278; 7802.175;-0.00417
 843.95; 7537.382;  213.839; 7446.956;-0.00540
 844.51; 7159.831;  213.734; 7076.737;-0.00523
 845.07; 6930.280;  223.295; 6751.184;-0.01175
 845.63; 6638.063;  228.523; 6447.965;-0.01308
 846.19; 6492.179;  213.418; 6205.745;-0.02028
 846.75; 6277.295;  212.646; 6042.860;-0.01712
 847.32; 6027.745;  191.874; 5828.307;-0.01510
 847.88; 5760.861;  198.435; 5647.088;-0.00898
 848.44; 5552.644;  182.996; 5418.202;-0.01101
 849.00; 5435.760;  188.224; 5206.649;-0.01939
 849.56; 5313.876;  183.119; 5035.763;-0.02420
 850.12; 5198.658;  176.680; 4913.211;-0.02541
 850.68; 5062.775;  181.908; 4877.325;-0.01682
 851.24; 4975.224;  184.136; 4806.439;-0.01558
 851.80; 4920.007;  199.364; 4790.220;-0.01211
 852.37; 4880.456;  196.592; 4731.334;-0.01405
 852.93; 4846.906;  204.820; 4729.448;-0.01113
 853.49; 4803.688;  212.715; 4650.895;-0.01470
 854.05; 4787.804;  223.943; 4597.676;-0.01848
 854.61; 4761.587;  224.171; 4520.790;-0.02368
 855.17; 4732.037;  234.066; 4501.904;-0.02281
 855.73; 4683.486;  222.627; 4484.352;-0.01983
 856.29; 4657.935;  213.855; 4475.132;-0.01824
 856.85; 4654.051;  192.749; 4517.913;-0.01346
 857.41; 4736.168;  203.644; 4600.027;-0.01324
 857.97; 4854.950;  205.205; 4760.141;-0.00895
 858.53; 5008.733;  207.433; 4902.255;-0.00974
 859.09; 5197.516;  192.328; 5028.370;-0.01493
 859.65; 5396.965;  184.889; 5166.484;-0.01964
 860.21; 5665.415;  182.451; 5403.598;-0.02125
 860.77; 5944.864;  179.679; 5685.045;-0.02003
 861.33; 6263.647;  189.573; 6014.826;-0.01817
 861.89; 6568.763;  205.135; 6331.273;-0.01652
 862.45; 6891.879;  215.363; 6656.387;-0.01559
 863.01; 7253.662;  205.924; 6960.168;-0.01847
 863.57; 7636.778;  191.152; 7240.949;-0.02372
 864.13; 8026.227;  180.713; 7598.730;-0.02433
 864.69; 8382.677;  188.608; 7928.510;-0.02476
 865.25; 8744.126;  208.502; 8274.958;-0.02455
 865.81; 9000.242;  215.730; 8598.739;-0.02032
 866.37; 9368.025;  213.625; 8883.853;-0.02360
 866.93; 9672.141;  200.853; 9198.967;-0.02226
 867.49;10061.924;  216.081; 9536.081;-0.02384
 868.05;10340.040;  210.642; 9849.195;-0.02157
 868.61;10646.823;  206.870;10116.309;-0.02265
 869.17;10956.605;  185.765;10306.090;-0.02706
 869.73;11284.721;  202.660;10652.537;-0.02551
 870.29;11626.504;  209.554;10985.985;-0.02508
 870.85;11999.620;  212.115;11316.099;-0.02594
 871.41;12313.070;  192.010;11700.213;-0.02253
 871.97;12629.852;  179.571;12032.994;-0.02134
 872.53;12969.302;  184.799;12414.108;-0.01928
 873.09;13384.085;  192.361;12748.222;-0.02146
 873.65;13863.534;  202.922;13125.336;-0.02413
 874.20;14238.317;  204.150;13530.783;-0.02247
 874.76;14670.650;  206.483;13844.450;-0.02554
 875.32;14962.317;  199.150;14344.450;-0.01857
 875.88;15342.317;  204.817;14722.117;-0.01817
 876.44;15638.650;  218.150;15059.450;-0.01663
 877.00;16023.317;  218.150;15358.117;-0.01867
 877.56;16366.983;  215.483;15696.450;-0.01841
 878.12;16692.317;  204.483;16104.450;-0.01577
 878.68;17026.983;  211.817;16344.450;-0.01800
 879.23;17280.317;  207.150;16637.783;-0.01666
 879.79;17519.317;  220.483;16875.783;-0.01646
 880.35;17672.983;  205.150;17127.117;-0.01379
 880.91;17944.983;  192.150;17367.783;-0.01435
 881.47;18264.317;  175.817;17611.783;-0.01596
 882.03;18619.650;  191.483;17929.783;-0.01657
 882.59;18891.317;  204.150;18199.450;-0.01638
 883.14;19136.650;  217.150;18423.117;-0.01670
 883.70;19289.983;  220.150;18492.117;-0.01856
 884.26;19370.983;  217.483;18606.117;-0.01770
 884.82;19345.317;  200.150;18627.783;-0.01659
 885.38;19305.317;  184.483;18693.783;-0.01412
 885.94;19346.650;  186.817;18692.783;-0.01508
 886.49;19395.317;  200.150;18759.783;-0.01462
 887.05;19436.983;  192.817;18819.450;-0.01416
 887.61;19330.650;  182.817;18766.450;-0.01299
 888.17;19211.983;  175.817;18655.450;-0.01289
 888.73;19009.983;  189.483;18492.450;-0.01211
 889.28;18801.650;  190.150;18251.117;-0.01304
 889.84;18692.650;  191.817;18020.450;-0.01607
 890.40;18616.983;  194.817;17792.450;-0.01989
 890.96;18518.983;  199.483;17628.450;-0.02164
 891.51;18229.317;  189.483;17470.117;-0.01867
 892.07;17964.317;  183.817;17244.117;-0.01796
 892.63;17826.650;  190.483;17036.783;-0.01990
 893.19;17675.983;  200.817;16880.117;-0.02024
 893.74;17514.983;  215.150;16772.783;-0.01904
 894.30;17217.317;  206.150;16671.450;-0.01416
 894.86;17118.317;  185.150;16510.450;-0.01588
 895.42;17101.650;  176.483;16397.450;-0.01846
 895.97;17043.650;  175.150;16362.450;-0.01790
 896.53;16962.983;  203.817;16299.450;-0.01754
 897.09;16807.317;  212.817;16258.117;-0.01462
 897.65;16739.317;  225.483;16079.783;-0.01770
 898.20;16645.650;  228.483;15994.117;-0.01759
 898.76;16632.650;  215.150;15888.117;-0.02016
 899.32;16571.650;  215.483;15824.450;-0.02031
 899.87;16490.650;  206.483;15765.117;-0.01979
 900.43;16304.650;  206.150;15631.783;-0.01854
 900.99;16199.650;  194.483;15508.450;-0.01917
 901.54;15995.650;  181.150;15319.450;-0.01898
 902.10;15814.650;  193.150;15133.117;-0.01937
 902.66;15576.317;  208.483;14918.117;-0.01901
 903.21;15415.317;  221.817;14754.117;-0.01932
 903.77;15249.983;  229.483;14588.450;-0.01956
 904.33;15121.317;  209.483;14443.783;-0.02019
 904.88;14972.317;  198.150;14329.783;-0.01931
 905.44;14857.317;  177.150;14293.450;-0.01701
 906.00;14851.317;  191.150;14324.117;-0.01591
 906.55;14811.983;  207.483;14294.117;-0.01568
 907.11;14768.983;  214.150;14239.117;-0.01611
 907.67;14565.983;  205.817;14016.117;-0.01696
 908.22;14414.317;  196.150;13855.783;-0.01740
 908.78;14232.650;  187.817;13715.783;-0.01628
 909.33;14081.650;  195.483;13616.783;-0.01479
 909.89;14031.650;  192.150;13488.783;-0.01738
 910.45;13965.983;  201.150;13406.783;-0.01801
 911.00;13891.983;  191.483;13362.117;-0.01713
 911.56;13752.317;  203.817;13272.117;-0.01567
 912.12;13618.983;  208.483;13101.117;-0.01710
 912.67;13513.317;  221.483;12951.117;-0.01877
 913.23;13315.317;  194.150;12807.450;-0.01714
 913.78;13145.650;  178.483;12651.783;-0.01686
 914.34;13106.650;  201.483;12642.117;-0.01592
 914.89;13061.983;  216.483;12543.117;-0.01791
 915.45;13109.650;  227.150;12558.117;-0.01900
 916.01;12958.650;  195.483;12386.117;-0.01993
 916.56;12868.317;  201.483;12282.450;-0.02057
 917.12;12684.983;  196.817;12063.117;-0.02218
 917.67;12557.317;  195.483;11981.117;-0.02073
 918.23;12406.650;  182.817;11944.450;-0.01674
 918.78;12345.650;  186.483;11927.117;-0.01521
 919.34;12200.983;  188.817;11843.783;-0.01311
 919.89;12081.983;  199.150;11694.117;-0.01441
 920.45;11847.650;  185.817;11531.783;-0.01193
 921.00;11741.650;  168.817;11330.783;-0.01570
 921.56;11678.317;  176.150;11296.783;-0.01465
 922.11;11520.650;  175.150;11154.450;-0.01425
 922.67;11357.317;  202.483;11048.450;-0.01219
 923.22;11134.317;  191.150;10815.450;-0.01284
 923.78;11033.983;  202.817;10632.117;-0.01642
 924.33;10860.983;  195.817;10497.117;-0.01508
 924.89;10716.650;  196.483;10361.117;-0.01493
 925.44;10603.650;  204.817;10248.117;-0.01511
 926.00;10519.983;  201.150;10018.783;-0.02162
 926.55;10360.650;  205.150; 9867.117;-0.02164
 927.11;10216.650;  188.150; 9720.450;-0.02204
 927.66;10103.983;  177.817; 9717.117;-0.01727
 928.22;10057.983;  174.483; 9670.783;-0.01736
 928.77; 9979.650;  190.150; 9636.117;-0.01551
 929.33; 9960.650;  204.150; 9587.783;-0.01692
 929.88; 9987.317;  205.150; 9516.450;-0.02142
 930.43;10012.983;  182.483; 9493.450;-0.02358
 930.99;10025.317;  174.817; 9470.117;-0.02519
 931.54; 9948.317;  167.150; 9456.783;-0.02239
 932.10; 9946.650;  190.150; 9473.117;-0.02161
 932.65; 9872.650;  197.150; 9480.117;-0.01799
 933.21; 9900.650;  198.483; 9496.450;-0.01848
 933.76; 9868.317;  187.483; 9472.117;-0.01815
 934.31; 9952.317;  183.150; 9454.117;-0.02273
 934.87; 9957.650;  190.150; 9433.783;-0.02394
 935.42; 9946.650;  199.483; 9431.450;-0.02358
 935.98; 9880.650;  195.483; 9388.450;-0.02265
 936.53; 9856.983;  193.817; 9335.450;-0.02410
 937.08; 9818.983;  191.150; 9347.783;-0.02179
 937.64; 9706.983;  197.817; 9356.783;-0.01630
 938.19; 9644.983;  196.483; 9425.117;-0.01023
 938.74; 9639.317;  199.817; 9340.117;-0.01399
 939.30; 9703.650;  187.150; 9339.783;-0.01693
 939.85; 9709.317;  186.483; 9209.783;-0.02340
 940.40; 9681.317;  173.817; 9251.783;-0.02008
 940.96; 9665.650;  187.150; 9238.450;-0.02003
 941.51; 9693.317;  189.483; 9244.783;-0.02100
 942.06; 9715.317;  197.150; 9160.450;-0.02609
 942.62; 9597.317;  184.817; 9036.783;-0.02667
 943.17; 9470.650;  195.150; 8966.450;-0.02427
 943.72; 9303.650;  180.483; 8903.117;-0.01950
 944.28; 9304.983;  199.483; 8795.117;-0.02503
 944.83; 9237.317;  184.150; 8766.783;-0.02318
 945.38; 9269.650;  194.483; 8735.117;-0.02636
 945.94; 9212.983;  186.483; 8804.450;-0.02011
 946.49; 9221.650;  205.150; 8772.783;-0.02218
 947.04; 9068.317;  208.817; 8738.117;-0.01650
 947.60; 9006.317;  215.150; 8638.117;-0.01858
 948.15; 8841.650;  203.483; 8519.117;-0.01653
 948.70; 8787.317;  212.817; 8413.783;-0.01934
 949.25; 8668.317;  206.150; 8325.117;-0.01798
 949.81; 8579.650;  208.817; 8271.117;-0.01631
 950.36; 8477.317;  198.483; 8157.117;-0.01713
 950.91; 8363.650;  207.150; 8037.783;-0.01771
 951.46; 8195.317;  203.817; 7873.117;-0.01787
 952.02; 8058.317;  207.150; 7734.117;-0.01831
 952.57; 7941.983;  207.150; 7606.450;-0.01926
 953.12; 7897.317;  218.483; 7526.117;-0.02152
 953.67; 7834.650;  218.150; 7443.783;-0.02288
 954.23; 7675.317;  215.817; 7359.450;-0.01879
 954.78; 7564.983;  208.150; 7234.450;-0.01996
 955.33; 7414.650;  218.150; 7119.783;-0.01817
 955.88; 7373.650;  217.150; 6980.117;-0.02456
 956.44; 7230.317;  230.483; 6838.450;-0.02502
 956.99; 7125.983;  228.817; 6737.117;-0.02520
 957.54; 7043.317;  223.817; 6672.783;-0.02426
 958.09; 7041.317;  222.150; 6636.783;-0.02656
 958.64; 7044.983;  206.817; 6607.450;-0.02872
 959.20; 6983.983;  203.483; 6532.450;-0.02993
 959.75; 6882.650;  199.817; 6496.450;-0.02585
 960.30; 6835.983;  218.150; 6441.783;-0.02667
 960.85; 6806.983;  225.150; 6424.450;-0.02600
 961.40; 6779.983;  228.817; 6381.117;-0.02728
 961.95; 6718.650;  231.817; 6360.783;-0.02465
 962.51; 6693.983;  239.483; 6360.117;-0.02307
 963.06; 6734.650;  242.817; 6380.117;-0.02439
 963.61; 6764.317;  234.150; 6314.783;-0.03098
 964.16; 6695.650;  235.150; 6258.450;-0.03043
 964.71; 6661.650;  222.483; 6212.117;-0.03143
 965.26; 6651.983;  213.150; 6253.117;-0.02777
 965.81; 6738.317;  210.817; 6289.117;-0.03096
 966.36; 6734.650;  208.483; 6323.783;-0.02824
 966.92; 6748.317;  216.150; 6305.117;-0.03051
 967.47; 6739.983;  218.483; 6338.117;-0.02762
 968.02; 6758.317;  232.483; 6354.117;-0.02777
 968.57; 6748.650;  234.817; 6375.450;-0.02562
 969.12; 6740.650;  219.817; 6368.783;-0.02550
 969.67; 6772.317;  204.483; 6420.783;-0.02389
 970.22; 6805.650;  194.150; 6469.783;-0.02264
 970.77; 6926.317;  199.817; 6539.117;-0.02575
 971.32; 7047.317;  197.483; 6593.117;-0.02980
 971.87; 7165.317;  198.817; 6693.117;-0.03048
 972.42; 7210.317;  215.150; 6793.117;-0.02671
 972.98; 7293.650;  220.817; 6908.783;-0.02430
 973.53; 7369.317;  231.483; 6996.117;-0.02332
 974.08; 7407.983;  215.483; 7040.450;-0.02278
 974.63; 7438.983;  223.483; 7078.450;-0.02226
 975.18; 7466.650;  218.483; 7103.117;-0.02235
 975.73; 7614.983;  224.817; 7157.450;-0.02776
 976.28; 7681.650;  221.483; 7219.117;-0.02780
 976.83; 7736.317;  221.483; 7315.450;-0.02503
 977.38; 7737.650;  219.483; 7373.783;-0.02154
 977.93; 7731.983;  222.150; 7387.450;-0.02040
 978.48; 7778.983;  228.483; 7365.783;-0.02444
 979.03; 7774.983;  234.817; 7358.117;-0.02470
 979.58; 7771.650;  221.483; 7329.117;-0.02623
 980.13; 7735.650;  207.150; 7367.783;-0.02176
 980.68; 7680.983;  186.483; 7310.450;-0.02202
 981.23; 7631.983;  185.817; 7278.117;-0.02115
 981.78; 7581.983;  207.150; 7207.450;-0.02264
 982.33; 7581.650;  219.150; 7257.117;-0.01958
 982.88; 7543.650;  232.483; 7211.783;-0.02017
 983.43; 7506.983;  218.150; 7145.783;-0.02207
 983.98; 7394.317;  215.150; 6984.117;-0.02555
 984.53; 7341.983;  203.817; 6873.450;-0.02948
 985.08; 7289.650;  209.817; 6835.783;-0.02877
 985.63; 7272.650;  211.150; 6787.117;-0.03094
 986.18; 7176.317;  218.817; 6756.783;-0.02701
 986.73; 7113.983;  218.483; 6610.450;-0.03293
 987.27; 6945.317;  227.483; 6521.117;-0.02833
 987.82; 6868.317;  238.483; 6431.783;-0.02958
 988.37; 6732.650;  243.150; 6400.783;-0.02280
 988.92; 6694.983;  234.150; 6351.117;-0.02375
 989.47; 6629.317;  214.483; 6285.117;-0.02395
 990.02; 6547.650;  208.483; 6199.117;-0.02456
 990.57; 6441.317;  208.150; 6083.117;-0.02570
 991.12; 6345.317;  215.150; 6044.450;-0.02186
 991.67; 6296.983;  213.817; 5969.117;-0.02406
 992.22; 6245.983;  200.483; 5915.450;-0.02442
 992.77; 6148.650;  200.150; 5802.450;-0.02604
 993.31; 6019.650;  204.817; 5735.783;-0.02174
 993.86; 5933.650;  230.483; 5683.783;-0.01946
 994.41; 5861.983;  235.150; 5580.117;-0.02232
 994.96; 5726.983;  226.483; 5473.117;-0.02052
 995.51; 5589.650;  218.817; 5377.783;-0.01748
 996.06; 5464.650;  208.483; 5293.783;-0.01435
 996.61; 5418.317;  222.483; 5201.783;-0.01849
 997.15; 5361.983;  236.150; 5083.450;-0.02426
 997.70; 5274.983;  241.150; 4965.117;-0.02759
 998.25; 5158.317;  247.483; 4873.450;-0.02595
 998.80; 5008.983;  248.483; 4740.117;-0.02525
 999.35; 4850.650;  249.483; 4623.450;-0.02199
 999.90; 4673.317;  236.150; 4455.117;-0.02190
1000.44; 4531.317;  224.483; 4340.450;-0.01969
1000.99; 4417.650;  232.483; 4190.783;-0.02420
1001.54; 4317.650;  237.150; 4067.450;-0.02748
1002.09; 4185.650;  231.817; 3939.117;-0.02796
1002.64; 4069.650;  238.483; 3855.450;-0.02499
1003.18; 3979.983;  240.483; 3766.783;-0.02549
1003.73; 3864.650;  238.483; 3661.450;-0.02505
1004.28; 3761.983;  226.817; 3584.450;-0.02238
1004.83; 3663.317;  209.483; 3488.117;-0.02261
1005.38; 3633.983;  210.150; 3420.783;-0.02792
1005.92; 3558.317;  219.150; 3321.783;-0.03191
1006.47; 3497.317;  236.817; 3231.783;-0.03689
1007.02; 3386.650;  235.483; 3140.117;-0.03538
1007.57; 3317.983;  222.817; 3087.450;-0.03361
1008.11; 3215.983;  211.817; 3028.450;-0.02799
1008.66; 3174.650;  205.150; 2973.450;-0.03047
1009.21; 3103.650;  192.483; 2907.783;-0.03025
1009.75; 3010.317;  177.817; 2862.117;-0.02334
1010.30; 2902.650;  170.150; 2793.117;-0.01777
1010.85; 2820.317;  176.817; 2712.783;-0.01804
1011.40; 2776.317;  204.150; 2628.450;-0.02571
1011.94; 2724.983;  221.817; 2545.783;-0.03226
1012.49; 2626.983;  216.483; 2464.450;-0.03032
1013.04; 2514.983;  194.150; 2362.117;-0.02959
1013.58; 2402.983;  184.150; 2325.117;-0.01551
1014.13; 2334.317;  188.483; 2268.117;-0.01361
1014.68; 2295.983;  196.483; 2233.450;-0.01313
1015.23; 2257.650;  203.150; 2181.450;-0.01641
1015.77; 2208.983;  199.817; 2113.117;-0.02123
1016.32; 2154.317;  204.817; 2072.450;-0.01863
1016.87; 2112.650;  209.483; 2012.783;-0.02341
1017.41; 2065.317;  206.817; 1977.450;-0.02103
1017.96; 2028.983;  194.817; 1953.450;-0.01826
1018.50; 1986.650;  186.483; 1926.450;-0.01477
1019.05; 1975.983;  188.483; 1903.450;-0.01799
1019.60; 1903.650;  182.817; 1815.783;-0.02276
1020.14; 1857.317;  196.150; 1752.783;-0.02823
1020.69; 1750.650;  196.150; 1698.117;-0.01493
1021.24; 1725.650;  209.483; 1650.450;-0.02209
1021.78; 1684.983;  188.483; 1620.450;-0.01914
1022.33; 1664.650;  190.150; 1592.450;-0.02180
1022.87; 1619.317;  182.817; 1587.783;-0.00964
1023.42; 1576.650;  198.150; 1567.117;-0.00301
1023.97; 1533.650;  200.150; 1516.117;-0.00575
1024.51; 1499.983;  212.150; 1465.117;-0.01192
1025.06; 1435.983;  200.483; 1401.117;-0.01243
1025.60; 1407.317;  198.817; 1340.783;-0.02459
1026.15; 1372.650;  181.150; 1307.783;-0.02431
1026.70; 1364.317;  185.483; 1284.783;-0.03034
1027.24; 1337.983;  195.483; 1279.783;-0.02271
1027.79; 1311.317;  200.483; 1270.450;-0.01628
1028.33; 1298.317;  197.483; 1252.450;-0.01848
1028.88; 1284.983;  188.817; 1215.450;-0.02846
1029.42; 1284.983;  208.150; 1198.450;-0.03638
1029.97; 1236.650;  197.817; 1156.450;-0.03489
1030.51; 1220.650;  190.150; 1127.117;-0.04132
1031.06; 1185.317;  182.817; 1088.783;-0.04397
1031.61; 1169.983;  192.483; 1063.117;-0.05028
1032.15; 1137.317;  210.150; 1050.450;-0.04272
1032.70; 1094.650;  202.817; 1024.117;-0.03578
1033.24; 1081.317;  206.483; 1018.117;-0.03257
1033.79; 1058.317;  200.817; 1020.450;-0.01961
1034.33; 1044.650;  199.817; 1016.450;-0.01474
1034.88; 1017.650;  201.817; 1008.783;-0.00475
1035.42;  995.650;  202.817;  979.450;-0.00897
1035.97;  974.983;  204.483;  950.450;-0.01405
1036.51;  971.317;  206.483;  931.450;-0.02325
1037.06;  955.317;  200.817;  944.117;-0.00650
1037.60;  978.317;  207.150;  948.783;-0.01696
1038.14;  976.650;  204.150;  928.783;-0.02778
1038.69;  997.650;  222.150;  927.783;-0.04100
1039.23;  983.983;  234.483;  935.783;-0.02887
1039.78;  971.983;  235.150;  948.783;-0.01389
1040.32;  934.650;  224.483;  915.783;-0.01169
1040.87;  926.317;  208.483;  887.117;-0.02439
1041.41;  920.983;  198.150;  864.117;-0.03559
1041.96;  954.317;  200.817;  882.783;-0.04332
1042.50;  947.650;  197.817;  893.117;-0.03279
1043.04;  945.650;  213.817;  899.117;-0.02853
1043.59;  949.317;  217.150;  867.450;-0.05150
1044.13;  921.983;  212.483;  869.450;-0.03341
1044.68;  921.317;  205.817;  862.117;-0.03751
1045.22;  888.650;  199.150;  873.783;-0.00947
1045.76;  893.650;  201.817;  869.450;-0.01546
1046.31;  863.983;  193.483;  861.783;-0.00143
1046.85;  858.983;  200.483;  842.117;-0.01127
1047.40;  853.983;  202.483;  813.783;-0.02766
1047.94;  862.983;  215.150;  808.783;-0.03795
1048.48;  868.317;  211.150;  810.117;-0.04027
1049.03;  852.983;  214.483;  793.450;-0.04251
1049.57;  861.317;  229.150;  787.117;-0.05422
1050.11;  835.983;  222.817;  774.117;-0.04619
1050.66;  818.317;  218.483;  779.117;-0.02935
1051.20;  800.983;  206.483;  794.450;-0.00480
1051.74;  803.317;  200.817;  788.117;-0.01110
1052.29;  812.983;  200.150;  780.783;-0.02344
1052.83;  793.650;  199.150;  748.117;-0.03461
1053.37;  776.317;  224.817;  744.783;-0.02557
1053.92;  770.983;  234.150;  739.783;-0.02600
1054.46;  771.983;  236.483;  734.117;-0.03185
1055.00;  784.650;  231.483;  739.117;-0.03731
1055.55;  768.983;  230.817;  738.117;-0.02565
1056.09;  754.983;  223.817;  747.783;-0.00593
1056.63;  732.317;  215.817;  711.783;-0.01762
1057.17;  731.317;  216.483;  709.117;-0.01914
1057.72;  751.650;  225.150;  697.450;-0.04718
1058.26;  742.650;  223.483;  705.783;-0.03199
1058.80;  742.317;  229.817;  700.450;-0.03701
1059.35;  720.983;  230.483;  686.450;-0.03171
1059.89;  706.983;  230.150;  672.450;-0.03265
1060.43;  703.983;  227.817;  654.783;-0.04737
1060.97;  672.983;  223.817;  667.117;-0.00571
1061.52;  672.983;  231.150;  682.450; 0.00921
1062.06;  667.650;  231.483;  671.450; 0.00377
1062.60;  674.650;  236.483;  658.450;-0.01636
1063.14;  654.317;  232.483;  640.783;-0.01416
1063.69;  641.317;  216.483;  640.117;-0.00123
1064.23;  635.983;  208.817;  619.783;-0.01679
1064.77;  644.650;  200.483;  598.450;-0.04770
1065.31;  632.317;  201.817;  577.450;-0.05921
1065.85;  625.983;  206.483;  567.117;-0.06567
1066.40;  630.983;  205.150;  579.450;-0.05602
1066.94;  618.317;  217.817;  579.117;-0.04473
1067.48;  607.983;  209.150;  587.783;-0.02257
1068.02;  594.983;  233.817;  562.450;-0.04100
1068.56;  591.650;  216.817;  564.783;-0.03230
1069.10;  588.317;  212.817;  549.783;-0.04702
1069.65;  579.983;  195.817;  566.450;-0.01558
1070.19;  584.317;  208.817;  566.783;-0.02077
1070.73;  592.317;  223.817;  582.783;-0.01138
1071.27;  593.317;  215.817;  567.117;-0.03124
1071.81;  584.317;  207.150;  562.117;-0.02635
1072.35;  584.983;  201.817;  549.117;-0.04268
1072.90;  575.983;  197.150;  546.783;-0.03484
1073.44;  569.983;  202.817;  540.117;-0.03685
1073.98;  564.317;  206.150;  531.450;-0.04180
1074.52;  560.317;  224.483;  538.783;-0.02878
1075.06;  547.317;  218.483;  542.450;-0.00648
1075.60;  518.317;  207.483;  531.450; 0.01797
1076.14;  533.983;  204.817;  514.117;-0.02704
1076.68;  532.983;  207.150;  504.450;-0.03980
1077.22;  555.650;  225.817;  504.783;-0.07274
1077.76;  532.650;  214.817;  498.117;-0.04995
1078.31;  538.317;  229.817;  499.783;-0.05795
1078.85;  527.983;  226.483;  517.117;-0.01594
1079.39;  528.650;  243.817;  525.450;-0.00491
1079.93;  535.317;  237.817;  507.783;-0.04218
1080.47;  525.983;  227.483;  476.450;-0.07880
1081.01;  523.650;  216.150;  474.783;-0.07516
1081.55;  502.317;  208.483;  488.783;-0.02048
1082.09;  501.983;  205.817;  488.783;-0.01980
1082.63;  489.317;  210.150;  496.450; 0.01096
1083.17;  495.317;  221.150;  500.783; 0.00857
1083.71;  499.983;  228.817;  501.450; 0.00234
1084.25;  499.317;  224.483;  471.117;-0.04702
1084.79;  489.983;  214.483;  446.450;-0.07470
1085.33;  473.650;  202.817;  450.783;-0.03831
1085.87;  478.650;  199.483;  468.450;-0.01617
1086.41;  487.650;  214.483;  471.450;-0.02655
1086.95;  485.983;  222.150;  467.117;-0.03222
1087.49;  489.983;  225.817;  454.783;-0.06211
1088.03;  476.983;  216.817;  454.117;-0.03995
1088.57;  486.983;  219.817;  450.783;-0.06323
1089.11;  463.983;  222.150;  448.117;-0.02947
1089.65;  496.650;  233.150;  458.783;-0.06738
1090.19;  486.650;  238.483;  468.117;-0.03371
1090.73;  495.650;  240.483;  471.783;-0.04265
1091.27;  473.983;  238.817;  466.117;-0.01478
1091.81;  472.317;  238.483;  458.117;-0.02721
1092.35;  473.983;  247.483;  461.450;-0.02472
1092.89;  459.650;  232.150;  457.450;-0.00422
1093.43;  459.650;  223.817;  445.783;-0.02632
1093.97;  455.317;  210.150;  441.117;-0.02591
1094.51;  464.317;  208.483;  440.450;-0.04253
1095.04;  462.317;  218.483;  442.783;-0.03626
1095.58;  471.317;  238.817;  436.783;-0.06983
1096.12;  460.650;  242.817;  428.783;-0.06869
1096.66;  466.650;  239.817;  430.450;-0.07551
1097.20;  460.983;  235.817;  449.450;-0.02284
1097.74;  462.650;  246.817;  456.783;-0.01197
1098.28;  460.317;  235.817;  457.117;-0.00623
1098.82;  447.650;  230.483;  453.117; 0.01080
1099.36;  441.317;  228.150;  446.450; 0.01033
1099.89;  422.650;  230.150;  447.450; 0.05263

