
Integration time [ms]:   0.300
Averaging Nr. [scans]: 1
Smoothing Nr. [pixels]: 1
Data measured with spectrometer [name]: 1906252U1
Wave   ;Sample   ;Dark     ;Reference;Absorbance
[nm]   ;[counts] ;[counts] ;[counts] ;[A.U]

 161.30;  279.209;  271.207;  271.637; 0.00000
 161.90;  258.231;  265.524;  261.712; 0.00000
 162.51;  261.266;  259.038;  260.433;-0.20350
 163.11;  268.679;  265.693;  251.834; 0.00000
 163.71;  284.975;  276.696;  266.803; 0.00000
 164.31;  289.645;  294.270;  273.488; 0.00000
 164.91;  285.577;  288.393;  287.410; 0.00000
 165.52;  268.778;  277.299;  279.261; 5.00000
 166.12;  259.261;  271.979;  273.718; 5.00000
 166.72;  256.637;  272.971;  259.755; 0.00000
 167.32;  279.917;  271.656;  271.040; 0.00000
 167.93;  284.745;  261.266;  267.518;-0.57467
 168.53;  284.515;  254.112;  260.296;-0.69169
 169.13;  284.803;  264.427;  257.261; 0.00000
 169.73;  288.227;  271.677;  266.351; 0.00000
 170.33;  314.670;  291.614;  320.561; 0.09882
 170.94;  321.660;  317.756;  347.746; 0.88542
 171.54;  339.693;  335.278;  387.239; 1.07074
 172.14;  344.648;  338.926;  375.538; 0.80606
 172.74;  331.972;  324.358;  373.181; 0.80697
 173.34;  320.685;  319.589;  355.569; 1.51632
 173.95;  307.377;  309.596;  343.923; 5.00000
 174.55;  324.682;  318.289;  355.228; 0.76176
 175.15;  333.608;  320.689;  367.155; 0.55592
 175.75;  336.659;  322.370;  380.195; 0.60712
 176.35;  354.477;  332.415;  382.036; 0.35201
 176.95;  358.988;  327.740;  392.907; 0.31920
 177.56;  367.433;  327.608;  398.355; 0.24956
 178.16;  343.723;  316.738;  399.298; 0.48565
 178.76;  339.597;  316.306;  398.487; 0.54759
 179.36;  351.804;  310.874;  401.343; 0.34446
 179.96;  362.285;  304.800;  395.813; 0.19954
 180.56;  364.767;  308.938;  392.969; 0.17758
 181.17;  354.890;  318.009;  403.448; 0.36485
 181.77;  363.614;  318.897;  417.181; 0.34200
 182.37;  365.882;  306.653;  404.111; 0.21628
 182.97;  371.560;  319.309;  413.789; 0.25725
 183.57;  376.389;  323.525;  427.944; 0.29562
 184.17;  408.890;  336.736;  473.104; 0.27645
 184.78;  426.046;  316.624;  484.587; 0.18611
 185.38;  433.953;  315.012;  504.833; 0.20301
 185.98;  434.073;  315.783;  504.638; 0.20318
 186.58;  460.210;  316.598;  510.449; 0.13028
 187.18;  470.432;  313.002;  491.678; 0.05498
 187.78;  489.820;  324.256;  526.070; 0.08598
 188.38;  490.911;  331.840;  541.159; 0.11922
 188.98;  488.951;  337.804;  574.199; 0.19424
 189.59;  484.301;  332.575;  567.529; 0.18992
 190.19;  485.508;  326.870;  580.708; 0.20415
 190.79;  488.394;  326.914;  573.939; 0.18462
 191.39;  480.725;  317.159;  564.285; 0.17923
 191.99;  476.152;  322.498;  545.363; 0.16150
 192.59;  474.394;  317.307;  539.929; 0.15143
 193.19;  476.825;  313.765;  525.712; 0.11388
 193.79;  479.386;  325.164;  530.280; 0.12385
 194.39;  474.456;  328.250;  517.658; 0.11243
 195.00;  456.960;  327.216;  511.139; 0.15155
 195.60;  429.875;  305.566;  480.732; 0.14895
 196.20;  412.935;  304.088;  469.473; 0.18168
 196.80;  397.126;  305.278;  453.989; 0.20927
 197.40;  390.311;  313.686;  455.186; 0.26638
 198.00;  398.571;  320.693;  452.457; 0.22838
 198.60;  390.736;  317.270;  442.943; 0.23315
 199.20;  376.986;  312.435;  427.513; 0.25109
 199.80;  370.911;  303.957;  416.753; 0.22651
 200.40;  354.356;  299.492;  396.868; 0.24916
 201.00;  344.240;  293.841;  371.434; 0.18741
 201.60;  328.869;  292.845;  340.403; 0.12062
 202.21;  338.704;  298.995;  352.240; 0.12739
 202.81;  337.362;  303.760;  367.883; 0.28065
 203.41;  316.749;  301.801;  377.921; 0.70693
 204.01;  312.438;  296.447;  373.611; 0.68353
 204.61;  316.301;  287.965;  374.799; 0.48635
 205.21;  341.181;  280.528;  391.328; 0.26169
 205.81;  351.095;  276.000;  394.567; 0.19835
 206.41;  342.187;  281.190;  389.667; 0.25003
 207.01;  331.686;  291.585;  373.516; 0.31030
 207.61;  314.715;  290.832;  349.221; 0.38825
 208.21;  310.589;  294.007;  340.088; 0.44388
 208.81;  303.216;  285.376;  350.048; 0.55933
 209.41;  305.097;  292.971;  355.294; 0.71091
 210.01;  313.617;  286.985;  361.835; 0.44879
 210.61;  313.779;  290.534;  351.990; 0.42224
 211.21;  310.026;  293.399;  356.219; 0.57728
 211.81;  304.757;  300.157;  352.258; 1.05407
 212.41;  300.011;  301.896;  344.513; 5.00000
 213.01;  318.767;  296.332;  351.625; 0.39175
 213.61;  323.476;  285.263;  357.339; 0.27558
 214.21;  328.897;  282.939;  368.411; 0.26946
 214.81;  310.221;  278.704;  361.387; 0.41887
 215.41;  305.483;  282.466;  362.645; 0.54201
 216.01;  306.025;  278.247;  362.189; 0.48028
 216.61;  311.284;  287.920;  357.792; 0.47575
 217.21;  312.205;  290.599;  357.391; 0.49015
 217.81;  304.287;  297.221;  367.800; 0.99947
 218.41;  302.572;  301.628;  379.081; 1.91418
 219.01;  303.316;  307.801;  388.505; 5.00000
 219.61;  311.718;  301.739;  384.906; 0.92087
 220.21;  309.338;  297.568;  378.507; 0.83737
 220.81;  320.885;  283.737;  372.713; 0.37934
 221.41;  329.862;  284.091;  376.024; 0.30288
 222.01;  325.560;  280.426;  372.049; 0.30750
 222.61;  318.948;  298.953;  367.451; 0.53476
 223.21;  315.570;  301.813;  357.103; 0.60413
 223.81;  322.485;  301.952;  360.676; 0.45637
 224.41;  316.133;  281.875;  343.618; 0.25583
 225.01;  316.779;  269.317;  340.250; 0.17451
 225.61;  310.543;  274.108;  341.033; 0.26407
 226.21;  316.407;  273.112;  349.918; 0.24896
 226.81;  312.658;  286.490;  349.175; 0.37940
 227.41;  323.100;  284.059;  344.282; 0.18824
 228.01;  331.407;  302.172;  351.241; 0.22491
 228.61;  331.662;  306.727;  360.474; 0.33353
 229.21;  329.221;  303.825;  362.700; 0.36517
 229.81;  333.965;  308.998;  372.791; 0.40741
 230.41;  341.236;  299.055;  383.396; 0.30093
 231.01;  357.774;  300.808;  405.942; 0.26612
 231.61;  334.925;  287.307;  401.095; 0.37832
 232.21;  335.335;  300.328;  383.489; 0.37577
 232.81;  305.790;  296.307;  370.928; 0.89590
 233.41;  318.192;  302.578;  372.995; 0.65417
 234.00;  316.432;  298.240;  379.918; 0.65222
 234.60;  335.794;  290.487;  363.623; 0.20796
 235.20;  316.429;  295.152;  359.264; 0.47901
 235.80;  304.600;  295.330;  365.432; 0.87862
 236.40;  299.554;  302.765;  379.044; 5.00000
 237.00;  325.655;  303.584;  384.824; 0.56595
 237.60;  327.131;  294.000;  377.651; 0.40223
 238.20;  329.698;  295.121;  389.214; 0.43477
 238.80;  313.840;  274.112;  389.668; 0.46370
 239.40;  333.266;  279.177;  403.402; 0.36110
 240.00;  327.502;  284.599;  402.640; 0.43954
 240.59;  347.150;  298.133;  401.312; 0.32324
 241.19;  335.908;  297.989;  399.745; 0.42870
 241.79;  346.216;  288.710;  384.715; 0.22258
 242.39;  349.418;  292.222;  383.909; 0.20495
 242.99;  339.956;  286.642;  375.121; 0.22000
 243.59;  324.578;  289.230;  388.763; 0.44960
 244.19;  310.720;  286.160;  385.560; 0.60716
 244.79;  324.500;  287.511;  384.652; 0.41933
 245.39;  328.739;  287.293;  395.554; 0.41699
 245.98;  328.970;  273.053;  391.453; 0.32581
 246.58;  320.461;  274.487;  389.290; 0.39744
 247.18;  338.188;  285.342;  384.364; 0.27272
 247.78;  337.931;  295.696;  398.758; 0.38743
 248.38;  349.007;  288.656;  421.162; 0.34155
 248.98;  330.473;  277.356;  419.988; 0.42898
 249.58;  322.823;  265.673;  430.671; 0.46046
 250.17;  332.349;  275.285;  426.842; 0.42421
 250.77;  338.805;  283.143;  431.967; 0.42711
 251.37;  330.242;  286.929;  425.089; 0.50376
 251.97;  314.974;  270.293;  429.805; 0.55268
 252.57;  311.734;  265.298;  436.882; 0.56763
 253.17;  330.008;  272.929;  449.172; 0.48964
 253.77;  343.791;  284.186;  466.282; 0.48502
 254.36;  348.306;  295.474;  468.774; 0.51591
 254.96;  345.762;  295.333;  480.567; 0.56504
 255.56;  325.830;  288.604;  484.301; 0.72074
 256.16;  325.718;  278.462;  506.509; 0.68357
 256.76;  312.317;  277.524;  496.109; 0.79814
 257.36;  323.485;  276.735;  508.603; 0.69546
 257.95;  305.935;  264.992;  503.713; 0.76572
 258.55;  332.630;  264.239;  518.084; 0.56957
 259.15;  332.673;  260.564;  510.454; 0.53976
 259.75;  357.214;  269.345;  523.998; 0.46211
 260.35;  342.156;  267.461;  538.318; 0.55945
 260.94;  337.231;  268.819;  539.764; 0.59775
 261.54;  345.581;  275.530;  547.771; 0.58954
 262.14;  344.600;  279.723;  553.422; 0.62518
 262.74;  366.368;  296.084;  592.169; 0.62456
 263.34;  358.129;  285.302;  604.600; 0.64190
 263.93;  354.072;  271.414;  619.201; 0.62403
 264.53;  351.653;  269.158;  628.783; 0.63942
 265.13;  332.084;  270.950;  628.566; 0.76713
 265.73;  337.659;  275.426;  648.466; 0.77773
 266.33;  346.605;  278.566;  678.397; 0.76912
 266.92;  343.228;  275.029;  689.673; 0.78390
 267.52;  349.610;  279.954;  705.726; 0.78622
 268.12;  330.805;  273.264;  717.281; 0.88742
 268.72;  357.683;  281.951;  749.175; 0.79025
 269.31;  355.341;  293.596;  782.505; 0.89862
 269.91;  356.534;  296.813;  783.686; 0.91129
 270.51;  354.288;  298.884;  823.747; 0.97650
 271.11;  352.906;  296.018;  844.685; 0.98429
 271.70;  359.226;  281.274;  877.686; 0.88372
 272.30;  366.437;  270.568;  887.924; 0.80885
 272.90;  376.266;  264.784;  909.412; 0.76210
 273.50;  370.397;  274.785;  916.521; 0.82685
 274.09;  368.067;  285.359;  947.539; 0.90343
 274.69;  380.862;  293.425;  961.690; 0.88325
 275.29;  391.557;  297.126; 1011.041; 0.87853
 275.89;  391.715;  301.162; 1057.168; 0.92162
 276.48;  378.606;  306.441; 1108.365; 1.04581
 277.08;  379.586;  303.217; 1149.330; 1.04451
 277.68;  394.173;  300.562; 1156.928; 0.96133
 278.28;  408.633;  297.934; 1188.748; 0.90564
 278.87;  412.761;  305.120; 1219.213; 0.92901
 279.47;  419.584;  316.402; 1279.019; 0.96985
 280.07;  423.772;  311.564; 1306.537; 0.94779
 280.66;  437.034;  305.599; 1329.806; 0.89168
 281.26;  455.173;  299.502; 1356.605; 0.83191
 281.86;  470.036;  299.353; 1408.460; 0.81278
 282.46;  483.569;  289.111; 1464.667; 0.78142
 283.05;  486.424;  270.001; 1525.842; 0.76363
 283.65;  493.164;  269.267; 1577.248; 0.76655
 284.25;  499.237;  276.537; 1628.707; 0.78331
 284.84;  503.993;  297.639; 1660.819; 0.81994
 285.44;  533.551;  304.585; 1722.349; 0.79183
 286.04;  555.172;  306.626; 1767.304; 0.76915
 286.63;  585.731;  299.604; 1827.551; 0.72755
 287.23;  587.768;  285.934; 1878.582; 0.72235
 287.83;  611.508;  285.987; 1956.635; 0.71031
 288.42;  614.350;  282.947; 2012.456; 0.71757
 289.02;  630.573;  281.018; 2081.351; 0.71184
 289.62;  623.560;  274.153; 2105.373; 0.71941
 290.21;  664.067;  278.965; 2173.882; 0.69201
 290.81;  696.374;  296.139; 2171.832; 0.67085
 291.41;  732.152;  301.675; 2217.279; 0.64836
 292.00;  739.129;  287.695; 2273.257; 0.64329
 292.60;  755.461;  266.816; 2355.570; 0.63089
 293.20;  775.835;  269.053; 2441.953; 0.63222
 293.79;  773.397;  275.331; 2498.541; 0.64969
 294.39;  796.971;  284.326; 2544.463; 0.64432
 294.99;  816.950;  280.435; 2588.095; 0.63359
 295.58;  875.505;  284.687; 2619.961; 0.59688
 296.18;  906.784;  271.100; 2672.236; 0.57718
 296.78;  931.738;  267.474; 2741.524; 0.57107
 297.37;  969.451;  256.039; 2819.912; 0.55556
 297.97;  994.650;  255.858; 2927.442; 0.55825
 298.57; 1050.095;  262.727; 2989.557; 0.53948
 299.16; 1088.967;  278.359; 3083.789; 0.53919
 299.76; 1125.876;  281.775; 3176.366; 0.53519
 300.35; 1153.893;  281.214; 3269.362; 0.53455
 300.95; 1159.984;  278.404; 3324.462; 0.53848
 301.55; 1211.677;  287.229; 3346.846; 0.51978
 302.14; 1238.518;  278.314; 3431.366; 0.51637
 302.74; 1278.350;  277.164; 3537.862; 0.51280
 303.33; 1307.740;  277.506; 3665.575; 0.51702
 303.93; 1362.105;  284.053; 3763.621; 0.50889
 304.53; 1430.220;  290.889; 3809.743; 0.48975
 305.12; 1468.564;  285.666; 3889.067; 0.48377
 305.72; 1503.917;  304.345; 3962.749; 0.48427
 306.31; 1519.652;  292.556; 4062.826; 0.48749
 306.91; 1591.729;  290.122; 4183.574; 0.47585
 307.51; 1617.897;  280.000; 4278.734; 0.47550
 308.10; 1664.882;  295.710; 4394.048; 0.47615
 308.70; 1667.889;  291.190; 4468.751; 0.48208
 309.29; 1724.936;  287.634; 4547.826; 0.47188
 309.89; 1786.473;  264.902; 4638.675; 0.45856
 310.48; 1858.922;  273.673; 4739.754; 0.44983
 311.08; 1913.281;  268.620; 4876.118; 0.44739
 311.68; 1946.855;  273.221; 4959.384; 0.44716
 312.27; 1996.425;  278.703; 5074.278; 0.44589
 312.87; 2058.008;  271.869; 5225.848; 0.44304
 313.46; 2128.837;  276.691; 5385.013; 0.44060
 314.06; 2203.384;  276.193; 5529.885; 0.43554
 314.65; 2246.401;  282.238; 5632.559; 0.43520
 315.25; 2292.773;  283.262; 5774.255; 0.43656
 315.85; 2322.395;  277.637; 5914.876; 0.44042
 316.44; 2401.791;  287.913; 6071.938; 0.43715
 317.04; 2484.180;  295.255; 6216.984; 0.43222
 317.63; 2558.190;  310.823; 6400.341; 0.43291
 318.23; 2607.453;  298.737; 6546.296; 0.43234
 318.82; 2661.387;  293.221; 6674.883; 0.43052
 319.42; 2720.392;  273.276; 6781.545; 0.42481
 320.01; 2800.136;  280.055; 6929.646; 0.42138
 320.61; 2861.167;  290.511; 7164.652; 0.42717
 321.20; 2946.160;  285.758; 7272.939; 0.41935
 321.80; 3012.582;  292.860; 7497.718; 0.42310
 322.39; 3086.362;  275.154; 7636.540; 0.41807
 322.99; 3151.034;  275.755; 7857.556; 0.42109
 323.58; 3226.039;  286.597; 7977.531; 0.41771
 324.18; 3313.870;  287.901; 8124.673; 0.41327
 324.77; 3372.195;  292.485; 8318.013; 0.41596
 325.37; 3413.013;  278.984; 8442.167; 0.41576
 325.96; 3478.483;  276.253; 8588.958; 0.41429
 326.56; 3589.283;  298.768; 8771.095; 0.41074
 327.15; 3666.289;  300.036; 8947.778; 0.40976
 327.75; 3735.045;  300.925; 9129.536; 0.41008
 328.34; 3754.366;  272.723; 9291.838; 0.41338
 328.94; 3869.781;  266.072; 9447.905; 0.40618
 329.53; 3936.753;  277.765; 9658.876; 0.40889
 330.13; 4065.654;  293.098; 9872.460; 0.40470
 330.72; 4116.726;  297.428;10112.576; 0.40991
 331.32; 4201.545;  296.807;10347.750; 0.41061
 331.91; 4313.207;  286.021;10578.045; 0.40750
 332.51; 4466.630;  290.846;10832.428; 0.40217
 333.10; 4566.559;  280.941;11112.686; 0.40268
 333.69; 4588.403;  268.720;11343.870; 0.40890
 334.29; 4560.505;  259.020;11372.294; 0.41222
 334.88; 4557.780;  263.526;11404.218; 0.41402
 335.48; 4594.060;  274.151;11347.513; 0.40880
 336.07; 4650.566;  277.361;11521.065; 0.41011
 336.67; 4712.593;  271.793;11561.792; 0.40523
 337.26; 4741.206;  270.478;11724.744; 0.40859
 337.86; 4752.236;  274.661;11795.073; 0.41043
 338.45; 4847.739;  285.081;11996.201; 0.40938
 339.04; 4937.587;  280.248;12122.714; 0.40530
 339.64; 5013.358;  279.247;12324.855; 0.40559
 340.23; 4978.705;  276.541;12444.594; 0.41292
 340.83; 5049.443;  283.446;12579.002; 0.41159
 341.42; 5119.592;  284.034;12728.085; 0.41052
 342.02; 5241.904;  280.810;12860.717; 0.40410
 342.61; 5234.967;  285.029;12994.842; 0.40954
 343.20; 5261.127;  280.703;13173.363; 0.41308
 343.80; 5318.639;  275.024;13326.514; 0.41292
 344.39; 5405.254;  277.525;13574.777; 0.41384
 344.99; 5493.727;  284.701;13698.586; 0.41080
 345.58; 5557.140;  281.629;13941.331; 0.41318
 346.17; 5629.430;  272.425;14086.941; 0.41141
 346.77; 5725.335;  263.601;14425.499; 0.41379
 347.36; 5780.252;  267.766;14640.403; 0.41619
 347.96; 5837.594;  271.456;14918.073; 0.42018
 348.55; 5878.919;  272.039;15018.413; 0.41996
 349.14; 5959.429;  269.152;15148.264; 0.41744
 349.74; 6096.816;  282.193;15379.635; 0.41438
 350.33; 6170.471;  292.264;15619.281; 0.41621
 350.92; 6272.264;  292.029;15990.758; 0.41915
 351.52; 6275.544;  276.988;16197.719; 0.42392
 352.11; 6396.524;  277.642;16449.038; 0.42208
 352.70; 6463.621;  293.221;16652.467; 0.42345
 353.30; 6618.521;  299.069;16923.354; 0.42006
 353.89; 6705.319;  289.556;17199.826; 0.42090
 354.49; 6815.273;  295.537;17471.125; 0.42068
 355.08; 6905.062;  303.789;17648.240; 0.41953
 355.67; 7034.370;  306.509;17850.877; 0.41626
 356.27; 7137.917;  292.678;18013.082; 0.41309
 356.86; 7196.882;  288.376;18230.048; 0.41448
 357.45; 7231.498;  297.756;18507.331; 0.41933
 358.05; 7350.460;  297.214;18684.613; 0.41613
 358.64; 7367.808;  292.504;18894.298; 0.41981
 359.23; 7450.999;  289.300;19081.825; 0.41897
 359.83; 7472.563;  289.121;19433.380; 0.42571
 360.42; 7609.105;  293.174;19722.600; 0.42419
 361.01; 7695.004;  287.355;19981.487; 0.42466
 361.61; 7784.074;  287.502;20183.522; 0.42390
 362.20; 7852.607;  294.987;20496.718; 0.42700
 362.79; 7927.827;  302.910;20634.303; 0.42593
 363.38; 7947.355;  301.613;20815.514; 0.42863
 363.98; 8083.240;  289.171;20943.715; 0.42325
 364.57; 8092.010;  277.744;21176.149; 0.42722
 365.16; 8188.999;  288.573;21351.502; 0.42587
 365.76; 8202.105;  293.720;21537.287; 0.42914
 366.35; 8311.384;  294.920;21731.542; 0.42717
 366.94; 8404.323;  286.459;21913.791; 0.42556
 367.53; 8426.326;  286.426;22067.466; 0.42746
 368.13; 8464.668;  291.994;22246.489; 0.42916
 368.72; 8499.800;  285.482;22413.295; 0.43037
 369.31; 8593.855;  292.281;22597.374; 0.42924
 369.91; 8618.678;  283.382;22746.877; 0.43056
 370.50; 8663.227;  291.699;22820.059; 0.42992
 371.09; 8713.109;  278.017;22946.909; 0.42934
 371.68; 8818.197;  286.967;23106.324; 0.42729
 372.28; 8928.779;  294.984;23340.584; 0.42639
 372.87; 8954.024;  297.367;23443.502; 0.42713
 373.46; 8999.798;  297.723;23614.255; 0.42804
 374.05; 9074.382;  287.889;23758.158; 0.42670
 374.65; 9205.377;  290.440;23950.173; 0.42389
 375.24; 9316.217;  272.918;24146.349; 0.42159
 375.83; 9398.562;  275.848;24331.370; 0.42109
 376.42; 9465.395;  273.516;24515.563; 0.42116
 377.02; 9544.999;  293.907;24527.502; 0.41822
 377.61; 9558.173;  288.112;24762.668; 0.42163
 378.20; 9564.973;  297.747;24944.118; 0.42480
 378.79; 9570.078;  297.015;25086.217; 0.42704
 379.38; 9634.650;  282.191;25204.109; 0.42566
 379.98; 9754.026;  267.243;25344.469; 0.42216
 380.57; 9893.939;  272.112;25606.751; 0.42046
 381.16; 9969.959;  291.609;25727.129; 0.41964
 381.75;10086.316;  289.589;25767.151; 0.41508
 382.35;10209.758;  283.703;25937.612; 0.41238
 382.94;10347.510;  271.231;26182.039; 0.41018
 383.53;10432.570;  279.541;26558.760; 0.41302
 384.12;10535.789;  269.432;26865.627; 0.41340
 384.71;10635.187;  284.069;27028.687; 0.41225
 385.31;10724.029;  287.699;27353.893; 0.41388
 385.90;10818.896;  299.731;27598.110; 0.41416
 386.49;10930.128;  283.306;27919.987; 0.41427
 387.08;11096.091;  296.763;28085.602; 0.41047
 387.67;11249.413;  302.047;28384.267; 0.40912
 388.26;11351.556;  312.463;28670.094; 0.40974
 388.86;11461.216;  297.866;29041.131; 0.41074
 389.45;11579.352;  285.685;29324.329; 0.41014
 390.04;11807.497;  279.860;29566.863; 0.40493
 390.63;11989.242;  284.795;29878.048; 0.40284
 391.22;12087.530;  294.422;30097.179; 0.40263
 391.81;12216.259;  303.408;30368.117; 0.40204
 392.41;12356.192;  324.211;30517.642; 0.39958
 393.00;12495.519;  349.022;30747.606; 0.39840
 393.59;12579.455;  379.676;31111.212; 0.40123
 394.18;12639.368;  399.780;31505.223; 0.40507
 394.77;12771.553;  433.703;31930.599; 0.40703
 395.36;12942.718;  473.557;32244.356; 0.40619
 395.95;13109.083;  524.323;32561.017; 0.40580
 396.55;13275.883;  566.236;32856.406; 0.40494
 397.14;13452.342;  594.577;33298.717; 0.40544
 397.73;13596.506;  601.786;33627.642; 0.40509
 398.32;13820.997;  612.294;34204.404; 0.40538
 398.91;14026.515;  621.039;34614.988; 0.40412
 399.50;14365.051;  632.059;35200.379; 0.40091
 400.09;14708.299;  605.452;35675.306; 0.39563
 400.68;14976.848;  582.293;36366.134; 0.39549
 401.27;15245.430;  548.561;37014.694; 0.39466
 401.87;15490.377;  525.771;37604.957; 0.39406
 402.46;15779.947;  501.053;38119.893; 0.39131
 403.05;16046.136;  484.389;38675.942; 0.38991
 403.64;16269.686;  490.521;39240.769; 0.39019
 404.23;16560.380;  484.797;39841.080; 0.38885
 404.82;16777.009;  502.588;40438.695; 0.38986
 405.41;17063.161;  491.629;41140.816; 0.38969
 406.00;17354.403;  497.890;41752.976; 0.38871
 406.59;17630.678;  479.966;42383.807; 0.38797
 407.18;17922.672;  482.149;42943.385; 0.38643
 407.77;18132.330;  466.520;43500.038; 0.38667
 408.37;18397.266;  484.641;43973.019; 0.38521
 408.96;18569.422;  491.806;44465.898; 0.38606
 409.55;18824.485;  504.476;44970.283; 0.38510
 410.14;19023.049;  481.626;45459.452; 0.38486
 410.73;19219.408;  490.299;45905.805; 0.38469
 411.32;19467.361;  492.855;46441.730; 0.38410
 411.91;19806.909;  505.687;47060.216; 0.38238
 412.50;20081.358;  480.732;47624.639; 0.38116
 413.09;20201.171;  484.505;48110.411; 0.38301
 413.68;20379.045;  482.467;48573.257; 0.38328
 414.27;20498.039;  487.472;48936.919; 0.38403
 414.86;20779.107;  462.470;49236.309; 0.38034
 415.45;20929.912;  452.555;49687.411; 0.38100
 416.04;21127.937;  462.743;50083.734; 0.38043
 416.63;21263.481;  468.551;50542.275; 0.38165
 417.22;21374.566;  461.867;50754.683; 0.38110
 417.81;21534.710;  462.159;51068.477; 0.38049
 418.40;21599.921;  476.694;51393.675; 0.38210
 418.99;21686.799;  477.832;51737.830; 0.38326
 419.58;21771.404;  462.218;51969.382; 0.38330
 420.17;21974.096;  452.952;52248.392; 0.38143
 420.76;22084.890;  458.593;52499.836; 0.38137
 421.35;22196.155;  472.988;53005.769; 0.38351
 421.94;22186.892;  474.287;53203.501; 0.38534
 422.53;22228.045;  469.601;53402.299; 0.38610
 423.12;22324.930;  471.552;53493.823; 0.38494
 423.71;22440.667;  463.366;53670.857; 0.38400
 424.30;22512.340;  471.573;53819.883; 0.38389
 424.89;22453.467;  477.611;53888.037; 0.38568
 425.48;22319.830;  477.854;53974.356; 0.38903
 426.07;22246.885;  465.438;53940.695; 0.39007
 426.66;22152.057;  460.097;54040.507; 0.39271
 427.25;22088.680;  453.014;53995.096; 0.39352
 427.84;22003.990;  450.549;53912.043; 0.39452
 428.43;21927.394;  452.848;53711.442; 0.39447
 429.02;21993.177;  457.772;53797.552; 0.39390
 429.61;21901.099;  448.720;53826.107; 0.39588
 430.20;21834.454;  425.820;53758.443; 0.39640
 430.79;21634.255;  437.001;53531.580; 0.39877
 431.38;21558.571;  442.471;53315.543; 0.39862
 431.97;21384.490;  451.391;53001.434; 0.39974
 432.55;21279.065;  445.807;52690.011; 0.39928
 433.14;21179.800;  441.412;52704.411; 0.40142
 433.73;21063.149;  432.971;52655.054; 0.40335
 434.32;20879.396;  424.624;52606.263; 0.40672
 434.91;20571.538;  423.161;52233.737; 0.41018
 435.50;20376.011;  418.064;51971.869; 0.41214
 436.09;20164.138;  418.432;51687.970; 0.41439
 436.68;20089.496;  422.559;51624.303; 0.41555
 437.27;19874.674;  439.214;51661.122; 0.42086
 437.86;19682.474;  433.576;51508.561; 0.42380
 438.45;19570.902;  436.794;51330.326; 0.42485
 439.04;19480.879;  419.148;51043.637; 0.42420
 439.62;19381.911;  412.025;51000.963; 0.42599
 440.21;19139.019;  413.441;50885.373; 0.43061
 440.80;19016.514;  430.263;51024.538; 0.43491
 441.39;18859.122;  449.560;51081.161; 0.43938
 441.98;18751.608;  447.874;51020.625; 0.44138
 442.57;18623.917;  436.530;50797.219; 0.44232
 443.16;18492.306;  425.660;50702.578; 0.44449
 443.75;18399.667;  431.481;50788.909; 0.44756
 444.33;18189.809;  435.018;50969.383; 0.45427
 444.92;18085.439;  440.355;50892.685; 0.45626
 445.51;17968.452;  417.614;50850.986; 0.45842
 446.10;17898.384;  410.612;51056.876; 0.46181
 446.69;17760.407;  404.712;51275.545; 0.46703
 447.28;17624.933;  420.929;51457.726; 0.47225
 447.87;17467.599;  412.657;51329.383; 0.47501
 448.45;17385.314;  413.036;51412.748; 0.47783
 449.04;17200.892;  390.874;51445.980; 0.48247
 449.63;17172.883;  386.972;51646.289; 0.48483
 450.22;17007.401;  381.501;51835.467; 0.49063
 450.81;16984.486;  386.090;52100.884; 0.49355
 451.40;16809.417;  391.666;52058.120; 0.49789
 451.98;16741.062;  398.229;52052.065; 0.49978
 452.57;16558.472;  403.856;52211.469; 0.50610
 453.16;16388.692;  401.626;52273.023; 0.51116
 453.75;16192.387;  391.994;52359.708; 0.51707
 454.34;16102.716;  388.814;52215.013; 0.51827
 454.93;16172.755;  395.232;52494.699; 0.51879
 455.51;16055.290;  391.805;52615.216; 0.52298
 456.10;15981.204;  402.670;52907.445; 0.52767
 456.69;15791.480;  396.116;53041.712; 0.53397
 457.28;15811.306;  403.304;53288.203; 0.53559
 457.87;15673.115;  395.902;53216.666; 0.53876
 458.45;15601.518;  396.108;53304.691; 0.54153
 459.04;15427.240;  388.965;53401.373; 0.54718
 459.63;15364.367;  395.666;53676.141; 0.55138
 460.22;15163.703;  396.420;53639.128; 0.55696
 460.80;15039.040;  400.600;53692.823; 0.56117
 461.39;14957.103;  392.483;53895.895; 0.56508
 461.98;15001.361;  393.792;54364.115; 0.56758
 462.57;15048.234;  398.874;54782.941; 0.56965
 463.16;15021.925;  397.668;55197.607; 0.57371
 463.74;15028.862;  387.726;55673.212; 0.57704
 464.33;15024.749;  376.102;56213.777; 0.58113
 464.92;15111.359;  370.427;56547.398; 0.58103
 465.51;15118.014;  357.831;56911.710; 0.58337
 466.09;15131.568;  358.204;57352.888; 0.58635
 466.68;15003.820;  361.518;57898.436; 0.59434
 467.27;14995.692;  372.331;58292.638; 0.59778
 467.86;14980.788;  368.243;58560.733; 0.60014
 468.44;15023.651;  363.094;58919.922; 0.60143
 469.03;15082.552;  361.882;59322.152; 0.60263
 469.62;15092.798;  367.807;59788.037; 0.60588
 470.20;15140.122;  365.300;60231.337; 0.60766
 470.79;15092.980;  374.762;60677.863; 0.61248
 471.38;15093.621;  358.816;61146.166; 0.61547
 471.97;15093.529;  359.020;61564.389; 0.61845
 472.55;15135.828;  350.111;61933.679; 0.61962
 473.14;15110.759;  362.234;62406.602; 0.62395
 473.73;15098.393;  355.473;62971.535; 0.62810
 474.31;15091.007;  347.428;63489.444; 0.63172
 474.90;15150.499;  350.797;63899.238; 0.63285
 475.49;15126.499;  352.737;64160.914; 0.63539
 476.07;15140.887;  357.870;64473.326; 0.63720
 476.66;15177.427;  347.892;64752.829; 0.63779
 477.25;15259.634;  340.581;65000.332; 0.63689
 477.84;15224.836;  352.761;65155.193; 0.63922
 478.42;15165.932;  344.733;65155.945; 0.64077
 479.01;15118.656;  344.681;65156.001; 0.64215
 479.60;15128.174;  330.210;65156.511; 0.64155
 480.18;15153.612;  334.265;65158.257; 0.64091
 480.77;15047.187;  342.135;65159.480; 0.64422
 481.35;14905.745;  347.900;65159.373; 0.64855
 481.94;14807.891;  344.738;65159.188; 0.65141
 482.53;14785.970;  335.059;65159.923; 0.65185
 483.11;14756.101;  332.000;65160.709; 0.65268
 483.70;14699.459;  318.067;65161.719; 0.65407
 484.29;14728.421;  316.585;65163.324; 0.65317
 484.87;14682.657;  306.461;65164.542; 0.65432
 485.46;14595.717;  315.710;65164.272; 0.65717
 486.05;14531.678;  319.958;65162.920; 0.65922
 486.63;14428.339;  321.237;65162.258; 0.66241
 487.22;14455.333;  317.302;65162.909; 0.66149
 487.81;14311.814;  323.288;65164.368; 0.66608
 488.39;14251.255;  331.856;65164.474; 0.66817
 488.98;14068.504;  337.207;65163.733; 0.67404
 489.56;13996.913;  317.228;65164.794; 0.67582
 490.15;13871.513;  310.772;65166.371; 0.67966
 490.74;13679.946;  302.771;65167.454; 0.68564
 491.32;13496.962;  305.937;65168.774; 0.69172
 491.91;13365.602;  316.111;64974.057; 0.69503
 492.49;13258.853;  317.823;64712.314; 0.69688
 493.08;13076.660;  332.939;64167.133; 0.69976
 493.67;12876.076;  325.500;63724.219; 0.70342
 494.25;12733.047;  343.920;63105.848; 0.70466
 494.84;12551.628;  335.724;62474.087; 0.70643
 495.42;12451.300;  338.386;61959.759; 0.70648
 496.01;12239.864;  319.873;61399.648; 0.70962
 496.59;12121.003;  310.443;60754.114; 0.70908
 497.18;11975.373;  311.106;60078.479; 0.70961
 497.77;11845.216;  311.733;59331.632; 0.70904
 498.35;11723.725;  326.966;58841.796; 0.71048
 498.94;11583.806;  324.499;58030.218; 0.70971
 499.52;11477.449;  324.914;57567.186; 0.71034
 500.11;11383.218;  311.275;56906.600; 0.70856
 500.69;11273.192;  304.601;56449.246; 0.70916
 501.28;11112.656;  315.149;55764.708; 0.71057
 501.86;10980.099;  317.653;55155.772; 0.71123
 502.45;10910.391;  338.264;54632.693; 0.71059
 503.03;10950.349;  328.939;54106.656; 0.70442
 503.62;10879.426;  339.385;53665.090; 0.70409
 504.20;10826.312;  326.215;53123.968; 0.70142
 504.79;10739.172;  326.766;52666.148; 0.70128
 505.37;10661.210;  326.582;52358.543; 0.70198
 505.96;10635.755;  332.269;51859.105; 0.69905
 506.55;10647.172;  327.706;51491.158; 0.69530
 507.13;10777.791;  315.837;51254.709; 0.68744
 507.72;10853.494;  312.954;51138.387; 0.68322
 508.30;10971.386;  319.265;50944.634; 0.67693
 508.89;11081.571;  316.460;50626.145; 0.66963
 509.47;11187.491;  308.593;50383.056; 0.66303
 510.05;11248.304;  311.037;50305.214; 0.66001
 510.64;11358.620;  312.992;50205.541; 0.65485
 511.22;11500.555;  326.961;50242.492; 0.65004
 511.81;11707.576;  323.186;50282.527; 0.64231
 512.39;11843.325;  329.747;50266.280; 0.63721
 512.98;12038.168;  310.647;50213.110; 0.62892
 513.56;12279.036;  306.947;50200.284; 0.61987
 514.15;12516.611;  297.484;50225.841; 0.61131
 514.73;12737.106;  293.306;50310.339; 0.60416
 515.32;12904.144;  298.909;50412.714; 0.59941
 515.90;13123.576;  306.909;50529.464; 0.59312
 516.49;13277.396;  321.223;50576.262; 0.58870
 517.07;13456.284;  323.415;50501.804; 0.58216
 517.66;13688.777;  325.663;50468.951; 0.57431
 518.24;13932.267;  330.491;50581.443; 0.56755
 518.82;14137.936;  322.791;50433.118; 0.55957
 519.41;14399.411;  321.449;50483.238; 0.55183
 519.99;14657.145;  304.901;50520.942; 0.54392
 520.58;15014.060;  313.039;50964.514; 0.53724
 521.16;15237.047;  316.114;51139.212; 0.53227
 521.75;15584.972;  315.579;51354.849; 0.52408
 522.33;15952.646;  314.722;51552.832; 0.51541
 522.91;16327.297;  303.280;51724.449; 0.50637
 523.50;16608.277;  304.661;51708.091; 0.49871
 524.08;16838.718;  292.957;51816.521; 0.49332
 524.67;17059.701;  296.699;52029.160; 0.48941
 525.25;17363.516;  294.898;52244.306; 0.48338
 525.83;17615.889;  300.195;52281.679; 0.47741
 526.42;18020.871;  299.604;52255.985; 0.46714
 527.00;18350.212;  297.414;52315.968; 0.45961
 527.59;18639.317;  293.742;52194.390; 0.45164
 528.17;18897.394;  296.702;52169.461; 0.44541
 528.75;19105.718;  314.407;52237.781; 0.44141
 529.34;19397.807;  317.963;52410.206; 0.43620
 529.92;19617.294;  322.096;52599.701; 0.43287
 530.50;19858.690;  308.099;52577.086; 0.42708
 531.09;20128.194;  310.277;52580.588; 0.42120
 531.67;20382.998;  319.699;52493.409; 0.41505
 532.25;20692.887;  331.224;52474.618; 0.40839
 532.84;20834.373;  319.265;52286.406; 0.40366
 533.42;20979.093;  303.579;52069.121; 0.39858
 534.00;21147.247;  296.379;51800.283; 0.39272
 534.59;21297.316;  306.923;51692.027; 0.38882
 535.17;21460.595;  307.396;51484.292; 0.38370
 535.75;21662.346;  311.833;51399.345; 0.37891
 536.34;21958.309;  327.170;51106.314; 0.37061
 536.92;22133.999;  323.362;50970.357; 0.36589
 537.50;22225.018;  320.767;50555.361; 0.36047
 538.09;22231.938;  304.234;50224.272; 0.35728
 538.67;22305.011;  307.957;49849.711; 0.35261
 539.25;22335.194;  292.004;49517.578; 0.34892
 539.84;22541.409;  298.382;49195.084; 0.34209
 540.42;22650.111;  287.620;48747.408; 0.33586
 541.00;22767.644;  304.712;48328.615; 0.32999
 541.59;22828.496;  293.453;47996.146; 0.32568
 542.17;22944.675;  303.713;47681.974; 0.32068
 542.75;23004.802;  301.687;47449.085; 0.31737
 543.33;23004.472;  321.928;47035.436; 0.31375
 543.92;23060.157;  322.791;46647.473; 0.30907
 544.50;23119.359;  319.637;46212.001; 0.30381
 545.08;23260.108;  303.653;45900.067; 0.29803
 545.67;23354.905;  304.594;45544.519; 0.29285
 546.25;23429.985;  306.855;45243.598; 0.28855
 546.83;23413.281;  305.919;44881.223; 0.28534
 547.41;23511.355;  307.185;44485.963; 0.27965
 548.00;23608.472;  304.048;44073.416; 0.27373
 548.58;23655.414;  293.554;43651.340; 0.26856
 549.16;23587.047;  273.252;43462.973; 0.26777
 549.74;23546.414;  276.221;43125.006; 0.26514
 550.33;23654.450;  287.338;42789.017; 0.25980
 550.91;23716.570;  287.502;42328.145; 0.25391
 551.49;23869.132;  275.114;42084.067; 0.24847
 552.07;23997.411;  281.527;41894.675; 0.24419
 552.66;24198.337;  296.715;41696.915; 0.23858
 553.24;24217.895;  301.874;41407.799; 0.23522
 553.82;24241.837;  287.046;41262.389; 0.23313
 554.40;24237.435;  287.502;41018.645; 0.23062
 554.98;24335.299;  286.839;40927.197; 0.22787
 555.57;24485.194;  295.511;40724.442; 0.22306
 556.15;24737.282;  295.794;40729.857; 0.21862
 556.73;24974.296;  289.872;40584.856; 0.21283
 557.31;25117.557;  280.087;40487.094; 0.20919
 557.89;25228.038;  267.680;40402.230; 0.20627
 558.48;25429.289;  270.725;40389.487; 0.20266
 559.06;25564.779;  269.279;40492.969; 0.20144
 559.64;25758.831;  288.172;40421.363; 0.19746
 560.22;25873.618;  308.276;40298.501; 0.19430
 560.80;26158.230;  311.749;40155.433; 0.18796
 561.39;26353.961;  300.174;40123.139; 0.18426
 561.97;26536.636;  304.256;40118.465; 0.18120
 562.55;26752.766;  305.864;40159.584; 0.17809
 563.13;26946.333;  307.652;40244.814; 0.17586
 563.71;27206.166;  295.320;40343.674; 0.17266
 564.29;27234.307;  296.315;40286.513; 0.17159
 564.88;27387.842;  280.495;40218.374; 0.16830
 565.46;27515.599;  277.260;40267.767; 0.16678
 566.04;27834.408;  269.464;40338.574; 0.16245
 566.62;28061.274;  292.162;40520.457; 0.16097
 567.20;28406.494;  292.265;40647.678; 0.15698
 567.78;28523.899;  300.170;40851.754; 0.15739
 568.36;28817.565;  300.837;41002.754; 0.15452
 568.94;28906.345;  296.460;41004.189; 0.15316
 569.53;29302.021;  295.816;41099.192; 0.14821
 570.11;29444.658;  283.902;41113.488; 0.14618
 570.69;29680.094;  278.869;41248.245; 0.14409
 571.27;29715.778;  279.854;41227.262; 0.14335
 571.85;29830.074;  279.584;41295.220; 0.14238
 572.43;30031.762;  299.078;41479.213; 0.14145
 573.01;30237.428;  288.199;41566.526; 0.13934
 573.59;30429.224;  284.931;41522.011; 0.13608
 574.17;30537.823;  270.419;41423.650; 0.13343
 574.76;30726.910;  278.826;41529.098; 0.13187
 575.34;30941.807;  274.920;41725.997; 0.13087
 575.92;31113.670;  271.771;41808.186; 0.12929
 576.50;31294.981;  265.398;41828.507; 0.12693
 577.08;31526.192;  261.206;41866.048; 0.12409
 577.66;31642.530;  250.776;41875.013; 0.12253
 578.24;31820.694;  252.747;41879.155; 0.12012
 578.82;31876.447;  257.942;41897.583; 0.11957
 579.40;32014.740;  266.978;41903.210; 0.11776
 579.98;32097.159;  273.567;41841.961; 0.11601
 580.56;32232.512;  281.852;41853.319; 0.11432
 581.14;32547.358;  291.659;41917.834; 0.11076
 581.72;32678.441;  280.280;42082.244; 0.11068
 582.30;32842.016;  273.151;42074.467; 0.10839
 582.88;32815.500;  274.650;42152.288; 0.10955
 583.46;32967.683;  282.363;42189.821; 0.10794
 584.04;33174.633;  282.956;42171.457; 0.10501
 584.62;33456.981;  265.125;42197.830; 0.10152
 585.21;33610.260;  267.265;42241.428; 0.09998
 585.79;33693.855;  273.754;42392.009; 0.10046
 586.37;33794.487;  277.118;42415.309; 0.09941
 586.95;33981.674;  275.522;42455.787; 0.09740
 587.53;34163.068;  269.979;42469.819; 0.09520
 588.11;34289.494;  278.442;42585.262; 0.09479
 588.69;34413.409;  282.733;42557.865; 0.09294
 589.27;34484.016;  283.424;42506.477; 0.09152
 589.85;34574.819;  276.026;42443.602; 0.08970
 590.43;34684.161;  271.715;42599.939; 0.08991
 591.01;34754.064;  278.076;42722.853; 0.09031
 591.59;34902.486;  288.299;42936.945; 0.09065
 592.16;34925.198;  287.924;42891.657; 0.08990
 592.74;35079.269;  291.617;42886.045; 0.08793
 593.32;35139.866;  293.193;42739.948; 0.08568
 593.90;35284.561;  297.895;42708.966; 0.08358
 594.48;35414.291;  288.777;42603.037; 0.08086
 595.06;35523.043;  285.245;42684.475; 0.08035
 595.64;35611.135;  272.769;42709.242; 0.07949
 596.22;35656.702;  276.890;42757.472; 0.07943
 596.80;35592.194;  268.138;42505.619; 0.07763
 597.38;35683.809;  264.245;42457.558; 0.07600
 597.96;35745.157;  262.869;42299.911; 0.07362
 598.54;35938.316;  268.057;42320.734; 0.07149
 599.12;35869.000;  272.769;42174.074; 0.07082
 599.70;35843.542;  272.156;42133.628; 0.07071
 600.28;35675.451;  269.178;41999.881; 0.07138
 600.86;35647.487;  273.568;41898.236; 0.07067
 601.44;35602.237;  279.130;41816.989; 0.07039
 602.02;35483.898;  273.135;41601.984; 0.06958
 602.59;35560.424;  269.019;41487.164; 0.06742
 603.17;35486.901;  254.435;41427.991; 0.06768
 603.75;35708.255;  264.600;41407.036; 0.06475
 604.33;35532.916;  268.544;41269.041; 0.06545
 604.91;35507.518;  272.574;41056.648; 0.06352
 605.49;35383.947;  271.546;40985.067; 0.06428
 606.07;35381.456;  254.900;40828.877; 0.06261
 606.65;35224.282;  260.422;40696.701; 0.06315
 607.23;35110.363;  264.441;40448.820; 0.06191
 607.80;35074.244;  277.156;40221.379; 0.05991
 608.38;35161.365;  277.256;40025.464; 0.05669
 608.96;35147.248;  285.786;39921.000; 0.05574
 609.54;34939.278;  288.246;39743.725; 0.05639
 610.12;34667.594;  283.928;39528.375; 0.05743
 610.70;34350.860;  273.259;39095.265; 0.05661
 611.28;34115.996;  259.195;38813.390; 0.05643
 611.85;33902.821;  265.841;38433.913; 0.05488
 612.43;33673.850;  260.695;38304.961; 0.05637
 613.01;33658.724;  263.202;38019.161; 0.05330
 613.59;33392.351;  249.299;37795.112; 0.05417
 614.17;33279.642;  240.914;37668.085; 0.05416
 614.75;32960.426;  222.778;37521.205; 0.05664
 615.32;32929.343;  209.277;37291.775; 0.05435
 615.90;32777.793;  219.080;36866.572; 0.05138
 616.48;32584.534;  232.952;36658.988; 0.05152
 617.06;32267.374;  255.157;36308.488; 0.05163
 617.64;31920.360;  246.140;36072.812; 0.05350
 618.22;31723.728;  241.049;35666.522; 0.05124
 618.79;31592.487;  228.178;35515.632; 0.05118
 619.37;31533.869;  227.104;35180.352; 0.04785
 619.95;31188.155;  231.387;34894.600; 0.04911
 620.53;30926.058;  218.869;34491.494; 0.04771
 621.11;30465.501;  206.529;34156.975; 0.04999
 621.68;30414.222;  201.116;33920.700; 0.04769
 622.26;30205.320;  202.843;33803.106; 0.04919
 622.84;30194.594;  212.594;33643.042; 0.04728
 623.42;29979.620;  214.208;33340.072; 0.04646
 623.99;29798.038;  232.130;33128.823; 0.04636
 624.57;29628.084;  239.695;32874.211; 0.04550
 625.15;29444.147;  249.244;32723.283; 0.04623
 625.73;29329.977;  235.066;32483.448; 0.04469
 626.30;29233.993;  228.444;32290.122; 0.04351
 626.88;29058.147;  228.031;32032.596; 0.04264
 627.46;28772.649;  230.061;31766.787; 0.04332
 628.04;28521.058;  242.419;31549.234; 0.04418
 628.61;28264.929;  241.899;31249.103; 0.04395
 629.19;28114.270;  244.829;31015.066; 0.04300
 629.77;27838.967;  231.831;30736.758; 0.04335
 630.35;27636.712;  234.217;30562.869; 0.04406
 630.92;27432.416;  232.092;30375.921; 0.04462
 631.50;27288.620;  220.757;30199.145; 0.04435
 632.08;27129.147;  206.521;29949.680; 0.04327
 632.66;26954.272;  196.801;29744.460; 0.04308
 633.23;26743.566;  216.776;29426.430; 0.04184
 633.81;26605.164;  225.566;29138.020; 0.03982
 634.39;26431.590;  220.298;28844.754; 0.03825
 634.96;26251.966;  221.956;28624.791; 0.03789
 635.54;26012.705;  216.680;28606.896; 0.04162
 636.12;25807.746;  214.735;28334.976; 0.04090
 636.69;25651.042;  204.526;28222.591; 0.04181
 637.27;25419.642;  199.403;27913.834; 0.04096
 637.85;25219.545;  217.219;27696.062; 0.04102
 638.42;24959.138;  206.286;27392.989; 0.04073
 639.00;24816.916;  223.367;27259.457; 0.04112
 639.58;24627.720;  209.789;26981.612; 0.03997
 640.15;24542.605;  222.891;26790.445; 0.03839
 640.73;24432.387;  204.119;26492.226; 0.03544
 641.31;24318.837;  216.013;26471.006; 0.03714
 641.88;24129.952;  210.908;26285.787; 0.03748
 642.46;23972.068;  226.803;26132.901; 0.03782
 643.04;23815.851;  214.697;25934.349; 0.03733
 643.61;23740.300;  223.925;25817.463; 0.03676
 644.19;23631.749;  209.153;25659.577; 0.03606
 644.77;23474.198;  224.048;25468.358; 0.03574
 645.34;23323.314;  211.943;25293.805; 0.03553
 645.92;23147.096;  214.504;25070.586; 0.03498
 646.49;23083.879;  218.399;24938.033; 0.03386
 647.07;22936.328;  220.293;24745.814; 0.03329
 647.65;22785.110;  224.188;24564.928; 0.03298
 648.22;22597.226;  218.082;24391.042; 0.03349
 648.80;22503.008;  227.310;24368.156; 0.03492
 649.37;22461.458;  227.872;24339.937; 0.03522
 649.95;22367.573;  227.433;24242.051; 0.03530
 650.53;22336.689;  209.328;24121.165; 0.03368
 651.10;22229.472;  214.222;24054.279; 0.03458
 651.68;22142.587;  211.450;24020.060; 0.03567
 652.25;21952.703;  221.012;23899.174; 0.03725
 652.83;21834.486;  211.573;23700.955; 0.03596
 653.41;21831.601;  208.468;23524.069; 0.03273
 653.98;21847.384;  212.362;23340.850; 0.02899
 654.56;21796.500;  211.590;23307.630; 0.02939
 655.13;21632.949;  208.818;23285.744; 0.03227
 655.71;21449.731;  207.379;23284.525; 0.03598
 656.28;21426.514;  194.941;23185.639; 0.03457
 656.86;21363.963;  188.169;22962.753; 0.03161
 657.43;21355.412;  190.397;22872.868; 0.03007
 658.01;21292.861;  212.958;22793.315; 0.02986
 658.58;21345.977;  207.519;22876.096; 0.03035
 659.16;21287.093;  211.747;22798.876; 0.03009
 659.74;21251.208;  196.309;22777.324; 0.03039
 660.31;21159.657;  204.203;22714.438; 0.03108
 660.89;21105.773;  198.098;22687.885; 0.03168
 661.46;21070.556;  206.659;22545.999; 0.02967
 662.04;21011.005;  208.554;22516.780; 0.03035
 662.61;21111.787;  207.448;22500.894; 0.02794
 663.19;21130.570;  206.676;22626.342; 0.02999
 663.76;21189.019;  209.571;22600.456; 0.02828
 664.34;21172.801;  211.132;22526.237; 0.02717
 664.91;21202.584;  214.027;22413.684; 0.02436
 665.49;21253.700;  216.922;22441.798; 0.02386
 666.06;21218.482;  213.150;22513.246; 0.02598
 666.64;21218.931;  212.044;22555.693; 0.02679
 667.21;21260.380;  216.606;22500.140; 0.02486
 667.79;21311.163;  204.167;22400.588; 0.02186
 668.36;21296.278;  201.395;22402.702; 0.02220
 668.93;21234.728;  202.290;22421.149; 0.02383
 669.51;21057.843;  198.184;22426.263; 0.02759
 670.08;20928.626;  192.412;22387.044; 0.02952
 670.66;20896.075;  189.307;22273.825; 0.02798
 671.23;21087.857;  213.201;22361.606; 0.02572
 671.81;21138.306;  219.763;22403.720; 0.02551
 672.38;21141.089;  224.324;22501.167; 0.02736
 672.96;21050.538;  213.552;22510.281; 0.02941
 673.53;21078.987;  213.113;22482.395; 0.02827
 674.10;21075.770;  213.008;22524.843; 0.02916
 674.68;21131.219;  228.236;22505.290; 0.02765
 675.25;21143.335;  221.131;22417.404; 0.02567
 675.83;21169.450;  215.692;22370.185; 0.02420
 676.40;21149.566;  203.253;22300.299; 0.02323
 676.98;21148.682;  209.148;22323.413; 0.02371
 677.55;21112.464;  210.043;22281.527; 0.02363
 678.12;21056.580;  223.937;22260.975; 0.02441
 678.70;21033.696;  221.832;22236.089; 0.02439
 679.27;20995.812;  229.060;22163.870; 0.02377
 679.85;20922.261;  216.621;22124.984; 0.02452
 680.42;20917.710;  216.516;22133.431; 0.02478
 680.99;20921.826;  192.744;22099.212; 0.02399
 681.57;20972.942;  198.305;22028.659; 0.02153
 682.14;20934.057;  205.866;21848.773; 0.01875
 682.71;20857.840;  210.761;21795.554; 0.01929
 683.29;20762.289;  200.656;21706.668; 0.01950
 683.86;20649.071;  185.884;21546.116; 0.01863
 684.43;20439.520;  198.112;21362.230; 0.01936
 685.01;20276.303;  197.006;21197.011; 0.01947
 685.58;20195.419;  206.234;21272.458; 0.02279
 686.16;20303.534;  206.462;21269.239; 0.02038
 686.73;20362.984;  215.023;21397.686; 0.02175
 687.30;20353.099;  207.585;21388.467; 0.02177
 687.88;20229.548;  217.479;21321.914; 0.02308
 688.45;20125.664;  210.707;21118.362; 0.02113
 689.02;20074.447;  213.602;21022.142; 0.02024
 689.60;20074.896;  190.497;20889.257; 0.01743
 690.17;20084.678;  199.391;20926.704; 0.01801
 690.74;20030.127;  189.619;20805.485; 0.01665
 691.31;19932.910;  204.181;20824.932; 0.01921
 691.89;19810.026;  191.742;20754.713; 0.02042
 692.46;19697.141;  212.637;20700.494; 0.02181
 693.03;19668.257;  229.198;20611.941; 0.02059
 693.61;19687.706;  234.759;20426.722; 0.01619
 694.18;19711.822;  237.320;20424.503; 0.01561
 694.75;19648.271;  206.882;20414.950; 0.01680
 695.32;19586.054;  208.110;20458.064; 0.01912
 695.90;19412.169;  203.004;20312.512; 0.01989
 696.47;19369.952;  203.899;20210.626; 0.01864
 697.04;19286.734;  214.460;20060.073; 0.01726
 697.62;19227.850;  213.355;20039.187; 0.01815
 698.19;19172.966;  229.250;19951.301; 0.01749
 698.76;19084.082;  211.144;19960.082; 0.01970
 699.33;19038.864;  210.706;19883.196; 0.01905
 699.91;18991.980;  196.600;19795.977; 0.01819
 700.48;18919.762;  206.162;19674.091; 0.01716
 701.05;18833.878;  208.056;19645.538; 0.01852
 701.62;18655.327;  232.951;19536.652; 0.02029
 702.20;18657.443;  235.179;19463.767; 0.01860
 702.77;18632.559;  232.073;19314.881; 0.01581
 703.34;18620.008;  217.301;19303.995; 0.01585
 703.91;18423.790;  214.196;19161.775; 0.01725
 704.48;18325.240;  220.091;19054.223; 0.01714
 705.06;18308.355;  212.652;18964.004; 0.01546
 705.63;18338.804;  221.213;18940.118; 0.01418
 706.20;18312.587;  214.441;18934.565; 0.01467
 706.77;18225.703;  221.336;18864.679; 0.01515
 707.34;18143.818;  215.564;18821.793; 0.01612
 707.92;18058.268;  205.792;18710.907; 0.01559
 708.49;17945.717;  193.353;18575.022; 0.01513
 709.06;17849.166;  193.248;18466.136; 0.01492
 709.63;17753.615;  194.476;18431.916; 0.01646
 710.20;17706.731;  191.037;18446.697; 0.01797
 710.77;17698.847;  187.932;18338.145; 0.01557
 711.35;17745.962;  185.826;18305.592; 0.01362
 711.92;17759.078;  205.721;18271.706; 0.01250
 712.49;17866.527;  207.616;18372.487; 0.01227
 713.06;17882.643;  215.844;18405.934; 0.01268
 713.63;17932.759;  209.405;18498.382; 0.01364
 714.20;17883.208;  212.300;18556.829; 0.01625
 714.78;17852.324;  209.528;18487.277; 0.01536
 715.35;17780.106;  205.756;18407.724; 0.01524
 715.92;17727.555;  207.317;18351.838; 0.01521
 716.49;17743.338;  222.545;18343.285; 0.01462
 717.06;17737.787;  226.106;18273.400; 0.01308
 717.63;17742.903;  217.334;18198.847; 0.01115
 718.20;17646.352;  210.895;18175.294; 0.01298
 718.77;17684.801;  224.790;18170.075; 0.01191
 719.35;17558.250;  226.351;18153.189; 0.01466
 719.92;17596.699;  211.913;18038.303; 0.01089
 720.49;17436.815;  197.474;17879.084; 0.01100
 721.06;17355.931;  177.369;17774.532; 0.01046
 721.63;17310.713;  190.930;17799.979; 0.01224
 722.20;17334.829;  195.825;17861.426; 0.01314
 722.77;17433.945;  203.386;17825.540; 0.00976
 723.34;17388.060;  196.947;17821.321; 0.01081
 723.91;17338.176;  205.509;17813.102; 0.01188
 724.48;17230.959;  222.070;17777.883; 0.01375
 725.05;17181.074;  212.964;17617.997; 0.01104
 725.62;17098.190;  195.192;17490.778; 0.00997
 726.20;17150.639;  186.754;17461.892; 0.00790
 726.77;17095.755;  192.982;17446.339; 0.00892
 727.34;17133.538;  199.210;17412.787; 0.00710
 727.91;17073.987;  209.104;17361.567; 0.00734
 728.48;17118.436;  214.999;17354.015; 0.00601
 729.05;17116.552;  215.560;17353.795; 0.00605
 729.62;17074.667;  192.788;17320.910; 0.00629
 730.19;16955.117;  185.683;17297.024; 0.00877
 730.76;16942.899;  188.578;17324.138; 0.00977
 731.33;16899.681;  211.472;17306.252; 0.01045
 731.90;16973.464;  215.034;17274.033; 0.00772
 732.47;16926.580;  206.261;17242.147; 0.00812
 733.04;16839.029;  191.156;17245.594; 0.01048
 733.61;16745.478;  168.051;17256.042; 0.01317
 734.18;16709.260;  173.945;17191.156; 0.01248
 734.75;16681.376;  184.507;17077.270; 0.01030
 735.32;16710.159;  211.401;16955.384; 0.00641
 735.89;16645.608;  203.963;16851.831; 0.00541
 736.46;16602.390;  212.191;16734.945; 0.00350
 737.03;16469.506;  203.085;16674.393; 0.00544
 737.60;16345.622;  203.647;16580.840; 0.00628
 738.17;16292.071;  173.208;16558.621; 0.00712
 738.74;16192.520;  184.103;16523.735; 0.00889
 739.31;16136.969;  185.331;16430.849; 0.00793
 739.88;16026.418;  195.225;16300.630; 0.00746
 740.45;15972.534;  176.120;16234.411; 0.00714
 741.02;15937.983;  174.348;16293.858; 0.00970
 741.59;15949.099;  171.909;16337.305; 0.01056
 742.15;15972.215;  177.804;16325.753; 0.00961
 742.72;16048.997;  185.365;16376.867; 0.00888
 743.29;16119.446;  187.593;16351.648; 0.00628
 743.86;16091.562;  195.154;16298.095; 0.00561
 744.43;15940.344;  197.049;16220.543; 0.00766
 745.00;15914.460;  201.277;16240.323; 0.00891
 745.57;16008.243;  209.172;16261.771; 0.00691
 746.14;16067.025;  201.733;16198.552; 0.00359
 746.71;16079.808;  208.294;16179.666; 0.00272
 747.28;15974.923;  196.522;16170.446; 0.00535
 747.85;15904.039;  172.417;16124.227; 0.00604
 748.42;15805.822;  173.645;16103.675; 0.00820
 748.98;15810.604;  177.206;16075.455; 0.00730
 749.55;15845.720;  197.767;16011.569; 0.00458
 750.12;15850.502;  197.662;16015.683; 0.00456
 750.69;15862.951;  204.890;15955.131; 0.00255
 751.26;15858.401;  216.118;15910.245; 0.00144
 751.83;15794.850;  206.013;15821.026; 0.00073
 752.40;15680.632;  204.907;15769.807; 0.00250
 752.97;15622.415;  192.802;15780.587; 0.00443
 753.53;15567.530;  195.697;15773.035; 0.00577
 754.10;15431.313;  187.925;15706.815; 0.00778
 754.67;15386.429;  185.486;15666.263; 0.00792
 755.24;15397.878;  192.714;15616.044; 0.00619
 755.81;15456.660;  200.608;15583.491; 0.00360
 756.38;15459.776;  223.503;15510.272; 0.00144
 756.94;15438.558;  215.064;15482.386; 0.00125
 757.51;15407.674;  204.292;15502.833; 0.00271
 758.08;15328.123;  196.520;15545.281; 0.00619
 758.65;15234.239;  213.748;15443.728; 0.00602
 759.22;15099.688;  220.643;15351.176; 0.00728
 759.79;14903.137;  205.538;15180.623; 0.00812
 760.35;14700.920;  191.432;15130.404; 0.01267
 760.92;14586.702;  201.994;14987.518; 0.01194
 761.49;14507.818;  208.555;14849.965; 0.01027
 762.06;14509.267;  211.783;14641.079; 0.00399
 762.63;14375.716;  201.011;14500.527; 0.00381
 763.19;14351.499;  203.239;14469.641; 0.00361
 763.76;14245.281;  215.133;14423.422; 0.00548
 764.33;14243.730;  219.695;14294.202; 0.00156
 764.90;14104.513;  218.589;14107.650; 0.00010
 765.46;13900.962;  197.817;13914.097; 0.00042
 766.03;13667.744;  196.045;13749.878; 0.00264
 766.60;13479.860;  197.940;13624.992; 0.00472
 767.17;13296.643;  205.501;13465.773; 0.00557
 767.73;13195.758;  207.063;13413.220; 0.00721
 768.30;13041.541;  206.624;13205.001; 0.00550
 768.87;12970.323;  215.185;13045.782; 0.00256
 769.44;12796.439;  213.413;12836.229; 0.00137
 770.00;12680.888;  215.975;12686.677; 0.00020
 770.57;12465.671;  216.536;12525.791; 0.00213
 771.14;12185.120;  213.430;12350.238; 0.00595
 771.71;11942.236;  198.325;12122.686; 0.00662
 772.27;11689.351;  206.220;11935.800; 0.00922
 772.84;11603.800;  209.448;11715.914; 0.00425
 773.41;11424.250;  213.676;11595.695; 0.00659
 773.97;11317.365;  205.904;11440.809; 0.00480
 774.54;11206.481;  213.798;11314.923; 0.00426
 775.11;11067.930;  232.360;11227.370; 0.00634
 775.67;10964.713;  228.588;11074.818; 0.00443
 776.24;10824.495;  222.482;10902.265; 0.00317
 776.81;10711.944;  220.377;10665.712;-0.00192
 777.38;10571.727;  208.272;10484.160;-0.00369
 777.94;10359.176;  214.166;10350.941;-0.00035
 778.51;10199.625;  199.728;10214.721; 0.00066
 779.08;10041.741;  210.622;10137.835; 0.00422
 779.64;10003.523;  201.517;10058.283; 0.00242
 780.21; 9857.972;  202.745; 9970.064; 0.00501
 780.78; 9783.088;  211.639; 9870.178; 0.00393
 781.34; 9637.871;  212.534; 9787.625; 0.00685
 781.91; 9642.986;  225.762; 9703.406; 0.00278
 782.47; 9513.102;  227.990; 9633.520; 0.00560
 783.04; 9473.218;  238.551; 9482.634; 0.00044
 783.61; 9364.000;  245.779; 9385.415; 0.00102
 784.17; 9306.783;  246.674; 9320.196; 0.00064
 784.74; 9228.565;  236.569; 9240.310; 0.00057
 785.31; 9139.681;  244.797; 9256.090; 0.00565
 785.87; 9122.463;  248.691; 9137.538; 0.00074
 786.44; 9011.913;  252.252; 9126.319; 0.00564
 787.00; 9024.695;  239.480; 9065.766; 0.00203
 787.57; 8989.811;  222.375; 9005.880; 0.00080
 788.14; 9014.927;  242.936; 8941.661;-0.00364
 788.70; 8979.709;  252.831; 8828.442;-0.00759
 789.27; 8951.158;  261.392; 8880.222;-0.00356
 789.83; 8858.941;  247.620; 8836.003;-0.00116
 790.40; 8825.390;  230.182; 8838.117; 0.00064
 790.96; 8799.172;  235.076; 8799.898; 0.00004
 791.53; 8859.621;  229.304; 8766.679;-0.00470
 792.10; 8774.737;  224.866; 8777.126; 0.00012
 792.66; 8740.186;  219.094; 8720.574;-0.00100
 793.23; 8647.302;  214.988; 8733.688; 0.00443
 793.79; 8627.751;  216.216; 8675.468; 0.00246
 794.36; 8592.534;  210.777; 8660.249; 0.00349
 794.92; 8526.983;  219.339; 8606.363; 0.00413
 795.49; 8519.098;  232.233; 8532.811; 0.00072
 796.05; 8489.548;  243.461; 8505.258; 0.00083
 796.62; 8519.663;  248.023; 8527.372; 0.00040
 797.19; 8476.112;  237.917; 8507.820; 0.00167
 797.75; 8456.562;  226.145; 8453.600;-0.00016
 798.32; 8507.344;  218.373; 8393.714;-0.00599
 798.88; 8493.793;  222.601; 8383.829;-0.00581
 799.45; 8512.909;  224.829; 8436.276;-0.00403
 800.01; 8533.358;  220.391; 8517.723;-0.00082
 800.58; 8704.474;  215.952; 8677.504;-0.00138
 801.14; 8921.923;  222.513; 8916.952;-0.00025
 801.71; 9155.705;  218.074; 9117.399;-0.00187
 802.27; 9420.488;  206.969; 9310.180;-0.00523
 802.84; 9680.270;  188.864; 9480.294;-0.00925
 803.40; 9922.719;  179.758; 9723.075;-0.00899
 803.96;10185.502;  198.986;10006.189;-0.00787
 804.53;10522.951;  210.548;10273.303;-0.01064
 805.09;10785.400;  208.442;10576.417;-0.00867
 805.66;11138.183;  200.670;10926.198;-0.00850
 806.22;11470.965;  172.898;11264.978;-0.00799
 806.79;11913.081;  185.793;11622.426;-0.01090
 807.35;12229.197;  182.354;11886.873;-0.01252
 807.92;12538.979;  214.582;12161.654;-0.01350
 808.48;12812.095;  221.810;12436.768;-0.01314
 809.05;13097.877;  217.705;12708.882;-0.01332
 809.61;13347.660;  213.933;13054.330;-0.00981
 810.17;13642.442;  218.827;13355.110;-0.00940
 810.74;14033.891;  231.055;13671.891;-0.01154
 811.30;14408.674;  226.617;13899.672;-0.01587
 811.87;14700.123;  214.511;14212.453;-0.01487
 812.43;14920.572;  214.406;14571.233;-0.01044
 812.99;15198.021;  216.967;14881.014;-0.00929
 813.56;15554.470;  221.862;15191.462;-0.01041
 814.12;15969.919;  221.090;15523.909;-0.01248
 814.69;16285.035;  216.318;15866.356;-0.01147
 815.25;16574.151;  210.213;16143.804;-0.01157
 815.81;16846.267;  200.774;16302.251;-0.01443
 816.38;17189.716;  196.335;16642.699;-0.01421
 816.94;17535.498;  193.897;16882.479;-0.01667
 817.51;17777.614;  192.791;17283.594;-0.01238
 818.07;18061.063;  201.019;17504.374;-0.01375
 818.63;18333.846;  202.247;17804.155;-0.01288
 819.20;18668.961;  201.808;18033.936;-0.01520
 819.76;18905.744;  209.370;18216.050;-0.01632
 820.32;19182.193;  216.598;18394.831;-0.01841
 820.89;19283.975;  218.159;18583.278;-0.01626
 821.45;19415.758;  193.387;18775.726;-0.01471
 822.01;19372.540;  176.615;18965.173;-0.00932
 822.58;19440.989;  180.843;19065.620;-0.00855
 823.14;19535.439;  194.404;19233.068;-0.00684
 823.70;19767.221;  202.299;19352.182;-0.00931
 824.27;19805.337;  193.194;19462.963;-0.00765
 824.83;19799.786;  215.421;19467.743;-0.00743
 825.39;19686.568;  215.649;19374.524;-0.00702
 825.95;19679.018;  221.211;19316.972;-0.00816
 826.52;19512.800;  191.105;19274.752;-0.00538
 827.08;19340.582;  189.000;19152.200;-0.00429
 827.64;19147.365;  175.895;18949.314;-0.00456
 828.21;18965.481;  175.123;18660.095;-0.00712
 828.77;18626.596;  181.351;18397.542;-0.00543
 829.33;18293.379;  183.579;18029.323;-0.00638
 829.89;17956.828;  181.807;17638.104;-0.00786
 830.46;17676.944;  185.701;17297.218;-0.00953
 831.02;17330.060;  190.596;16895.332;-0.01116
 831.58;16853.175;  201.157;16540.779;-0.00822
 832.15;16366.624;  185.052;16128.893;-0.00643
 832.71;15985.074;  188.280;15811.341;-0.00480
 833.27;15508.523;  178.841;15353.455;-0.00442
 833.83;15034.305;  169.736;14940.569;-0.00275
 834.39;14464.088;  164.297;14394.016;-0.00213
 834.96;14090.203;  162.192;13925.464;-0.00517
 835.52;13697.653;  187.086;13474.578;-0.00723
 836.08;13206.768;  188.981;13047.025;-0.00536
 836.64;12727.884;  194.876;12619.473;-0.00377
 837.21;12287.333;  198.770;12148.920;-0.00500
 837.77;11903.116;  198.332;11759.367;-0.00537
 838.33;11493.565;  206.893;11447.148;-0.00179
 838.89;11116.347;  203.121;11001.596;-0.00459
 839.45;10750.796;  205.349;10589.710;-0.00669
 840.02;10314.579;  209.910;10134.490;-0.00781
 840.58; 9909.028;  201.805; 9836.938;-0.00324
 841.14; 9457.810;  224.699; 9457.052;-0.00004
 841.70; 9128.593;  220.594; 9049.833;-0.00386
 842.26; 8670.042;  218.155; 8613.280;-0.00293
 842.82; 8340.491;  209.050; 8233.061;-0.00578
 843.39; 7894.274;  200.278; 7802.175;-0.00523
 843.95; 7531.389;  213.839; 7446.956;-0.00504
 844.51; 7112.838;  213.734; 7076.737;-0.00228
 845.07; 6825.621;  223.295; 6751.184;-0.00492
 845.63; 6571.403;  228.523; 6447.965;-0.00854
 846.19; 6349.186;  213.418; 6205.745;-0.01027
 846.75; 6159.968;  212.646; 6042.860;-0.00864
 847.32; 5958.751;  191.874; 5828.307;-0.00994
 847.88; 5747.200;  198.435; 5647.088;-0.00791
 848.44; 5513.982;  182.996; 5418.202;-0.00787
 849.00; 5300.431;  188.224; 5206.649;-0.00804
 849.56; 5203.214;  183.119; 5035.763;-0.01473
 850.12; 5105.330;  176.680; 4913.211;-0.01727
 850.68; 5040.779;  181.908; 4877.325;-0.01486
 851.24; 4925.561;  184.136; 4806.439;-0.01105
 851.80; 4834.344;  199.364; 4790.220;-0.00415
 852.37; 4801.793;  196.592; 4731.334;-0.00670
 852.93; 4767.575;  204.820; 4729.448;-0.00364
 853.49; 4735.358;  212.715; 4650.895;-0.00819
 854.05; 4705.807;  223.943; 4597.676;-0.01061
 854.61; 4646.923;  224.171; 4520.790;-0.01257
 855.17; 4648.038;  234.066; 4501.904;-0.01462
 855.73; 4587.154;  222.627; 4484.352;-0.01035
 856.29; 4629.603;  213.855; 4475.132;-0.01546
 856.85; 4608.052;  192.749; 4517.913;-0.00896
 857.41; 4681.835;  203.644; 4600.027;-0.00801
 857.97; 4776.617;  205.205; 4760.141;-0.00157
 858.53; 4965.066;  207.433; 4902.255;-0.00577
 859.09; 5157.849;  192.328; 5028.370;-0.01147
 859.65; 5395.631;  184.889; 5166.484;-0.01953
 860.21; 5635.080;  182.451; 5403.598;-0.01884
 860.77; 5956.529;  179.679; 5685.045;-0.02090
 861.33; 6244.312;  189.573; 6014.826;-0.01678
 861.89; 6615.428;  205.135; 6331.273;-0.01969
 862.45; 6936.210;  215.363; 6656.387;-0.01847
 863.01; 7293.326;  205.924; 6960.168;-0.02091
 863.57; 7639.442;  191.152; 7240.949;-0.02388
 864.13; 8002.224;  180.713; 7598.730;-0.02300
 864.69; 8390.340;  188.608; 7928.510;-0.02517
 865.25; 8727.456;  208.502; 8274.958;-0.02370
 865.81; 9040.572;  215.730; 8598.739;-0.02231
 866.37; 9364.354;  213.625; 8883.853;-0.02343
 866.93; 9660.470;  200.853; 9198.967;-0.02172
 867.49; 9969.252;  216.081; 9536.081;-0.01973
 868.05;10292.035;  210.642; 9849.195;-0.01951
 868.61;10656.817;  206.870;10116.309;-0.02307
 869.17;10990.933;  185.765;10306.090;-0.02844
 869.73;11245.049;  202.660;10652.537;-0.02395
 870.29;11618.831;  209.554;10985.985;-0.02478
 870.85;11922.947;  212.115;11316.099;-0.02311
 871.41;12281.396;  192.010;11700.213;-0.02140
 871.97;12555.845;  179.571;12032.994;-0.01875
 872.53;12941.628;  184.799;12414.108;-0.01834
 873.09;13373.077;  192.361;12748.222;-0.02109
 873.65;13765.193;  202.922;13125.336;-0.02099
 874.20;14230.975;  204.150;13530.783;-0.02224
 874.76;14626.308;  206.483;13844.450;-0.02421
 875.32;15033.642;  199.150;14344.450;-0.02066
 875.88;15410.642;  204.817;14722.117;-0.02012
 876.44;15755.308;  218.150;15059.450;-0.01990
 877.00;16100.308;  218.150;15358.117;-0.02078
 877.56;16409.975;  215.483;15696.450;-0.01957
 878.12;16804.308;  204.483;16104.450;-0.01871
 878.68;17150.642;  211.817;16344.450;-0.02118
 879.23;17413.642;  207.150;16637.783;-0.02004
 879.79;17583.975;  220.483;16875.783;-0.01808
 880.35;17730.975;  205.150;17127.117;-0.01523
 880.91;18010.308;  192.150;17367.783;-0.01595
 881.47;18300.975;  175.817;17611.783;-0.01684
 882.03;18698.975;  191.483;17929.783;-0.01844
 882.59;18976.642;  204.150;18199.450;-0.01836
 883.14;19155.975;  217.150;18423.117;-0.01714
 883.70;19148.975;  220.150;18492.117;-0.01534
 884.26;19228.975;  217.483;18606.117;-0.01447
 884.82;19347.308;  200.150;18627.783;-0.01663
 885.38;19458.308;  184.483;18693.783;-0.01758
 885.94;19457.308;  186.817;18692.783;-0.01758
 886.49;19448.642;  200.150;18759.783;-0.01583
 887.05;19384.642;  192.817;18819.450;-0.01298
 887.61;19287.975;  182.817;18766.450;-0.01202
 888.17;19177.308;  175.817;18655.450;-0.01209
 888.73;19115.975;  189.483;18492.450;-0.01455
 889.28;18970.308;  190.150;18251.117;-0.01696
 889.84;18764.975;  191.817;18020.450;-0.01777
 890.40;18522.642;  194.817;17792.450;-0.01766
 890.96;18425.975;  199.483;17628.450;-0.01943
 891.51;18259.975;  189.483;17470.117;-0.01941
 892.07;18089.975;  183.817;17244.117;-0.02102
 892.63;17831.308;  190.483;17036.783;-0.02001
 893.19;17665.642;  200.817;16880.117;-0.01999
 893.74;17503.975;  215.150;16772.783;-0.01877
 894.30;17379.642;  206.150;16671.450;-0.01829
 894.86;17165.975;  185.150;16510.450;-0.01710
 895.42;17039.975;  176.483;16397.450;-0.01687
 895.97;16953.642;  175.150;16362.450;-0.01558
 896.53;17041.308;  203.817;16299.450;-0.01957
 897.09;17061.642;  212.817;16258.117;-0.02122
 897.65;16990.975;  225.483;16079.783;-0.02427
 898.20;16827.975;  228.483;15994.117;-0.02238
 898.76;16662.308;  215.150;15888.117;-0.02094
 899.32;16539.975;  215.483;15824.450;-0.01947
 899.87;16490.308;  206.483;15765.117;-0.01978
 900.43;16410.975;  206.150;15631.783;-0.02140
 900.99;16317.642;  194.483;15508.450;-0.02236
 901.54;16111.308;  181.150;15319.450;-0.02214
 902.10;15869.975;  193.150;15133.117;-0.02091
 902.66;15672.975;  208.483;14918.117;-0.02173
 903.21;15452.642;  221.817;14754.117;-0.02039
 903.77;15291.975;  229.483;14588.450;-0.02077
 904.33;15101.642;  209.483;14443.783;-0.01962
 904.88;14982.308;  198.150;14329.783;-0.01960
 905.44;14977.975;  177.150;14293.450;-0.02057
 906.00;14876.308;  191.150;14324.117;-0.01665
 906.55;14817.975;  207.483;14294.117;-0.01586
 907.11;14665.308;  214.150;14239.117;-0.01300
 907.67;14580.308;  205.817;14016.117;-0.01739
 908.22;14420.308;  196.150;13855.783;-0.01759
 908.78;14302.308;  187.817;13715.783;-0.01843
 909.33;14121.975;  195.483;13616.783;-0.01605
 909.89;14104.308;  192.150;13488.783;-0.01965
 910.45;13966.308;  201.150;13406.783;-0.01802
 911.00;13979.642;  191.483;13362.117;-0.01990
 911.56;13832.642;  203.817;13272.117;-0.01824
 912.12;13755.975;  208.483;13101.117;-0.02152
 912.67;13597.642;  221.483;12951.117;-0.02152
 913.23;13417.975;  194.150;12807.450;-0.02053
 913.78;13264.642;  178.483;12651.783;-0.02083
 914.34;13129.308;  201.483;12642.117;-0.01668
 914.89;13064.308;  216.483;12543.117;-0.01799
 915.45;12993.642;  227.150;12558.117;-0.01507
 916.01;12920.975;  195.483;12386.117;-0.01865
 916.56;12842.975;  201.483;12282.450;-0.01970
 917.12;12732.642;  196.817;12063.117;-0.02384
 917.67;12560.975;  195.483;11981.117;-0.02086
 918.23;12383.642;  182.817;11944.450;-0.01592
 918.78;12283.308;  186.483;11927.117;-0.01298
 919.34;12178.975;  188.817;11843.783;-0.01231
 919.89;12050.975;  199.150;11694.117;-0.01328
 920.45;11890.642;  185.817;11531.783;-0.01352
 921.00;11811.975;  168.817;11330.783;-0.01833
 921.56;11762.642;  176.150;11296.783;-0.01782
 922.11;11620.308;  175.150;11154.450;-0.01805
 922.67;11421.642;  202.483;11048.450;-0.01469
 923.22;11253.975;  191.150;10815.450;-0.01757
 923.78;11070.642;  202.817;10632.117;-0.01789
 924.33;10923.975;  195.817;10497.117;-0.01763
 924.89;10748.975;  196.483;10361.117;-0.01626
 925.44;10628.975;  204.817;10248.117;-0.01616
 926.00;10541.642;  201.150;10018.783;-0.02253
 926.55;10429.308;  205.150; 9867.117;-0.02456
 927.11;10348.642;  188.150; 9720.450;-0.02772
 927.66;10159.308;  177.817; 9717.117;-0.01968
 928.22;10057.975;  174.483; 9670.783;-0.01736
 928.77; 9947.642;  190.150; 9636.117;-0.01409
 929.33; 9933.975;  204.150; 9587.783;-0.01573
 929.88; 9925.642;  205.150; 9516.450;-0.01868
 930.43; 9959.642;  182.483; 9493.450;-0.02122
 930.99; 9963.642;  174.817; 9470.117;-0.02247
 931.54; 9894.308;  167.150; 9456.783;-0.01999
 932.10; 9898.308;  190.150; 9473.117;-0.01945
 932.65; 9890.975;  197.150; 9480.117;-0.01881
 933.21; 9926.642;  198.483; 9496.450;-0.01964
 933.76; 9818.642;  187.483; 9472.117;-0.01591
 934.31; 9794.642;  183.150; 9454.117;-0.01567
 934.87; 9798.642;  190.150; 9433.783;-0.01681
 935.42; 9903.642;  199.483; 9431.450;-0.02166
 935.98; 9862.642;  195.483; 9388.450;-0.02184
 936.53; 9866.642;  193.817; 9335.450;-0.02453
 937.08; 9741.308;  191.150; 9347.783;-0.01827
 937.64; 9764.642;  197.817; 9356.783;-0.01892
 938.19; 9707.975;  196.483; 9425.117;-0.01311
 938.74; 9785.975;  199.817; 9340.117;-0.02068
 939.30; 9697.308;  187.150; 9339.783;-0.01664
 939.85; 9651.308;  186.483; 9209.783;-0.02075
 940.40; 9561.642;  173.817; 9251.783;-0.01458
 940.96; 9556.642;  187.150; 9238.450;-0.01501
 941.51; 9566.975;  189.483; 9244.783;-0.01518
 942.06; 9523.975;  197.150; 9160.450;-0.01727
 942.62; 9508.975;  184.817; 9036.783;-0.02257
 943.17; 9379.975;  195.150; 8966.450;-0.02001
 943.72; 9332.308;  180.483; 8903.117;-0.02086
 944.28; 9227.642;  199.483; 8795.117;-0.02132
 944.83; 9180.308;  184.150; 8766.783;-0.02044
 945.38; 9132.642;  194.483; 8735.117;-0.01976
 945.94; 9163.308;  186.483; 8804.450;-0.01772
 946.49; 9147.975;  205.150; 8772.783;-0.01861
 947.04; 9062.308;  208.817; 8738.117;-0.01620
 947.60; 8959.308;  215.150; 8638.117;-0.01625
 948.15; 8854.975;  203.483; 8519.117;-0.01720
 948.70; 8764.308;  212.817; 8413.783;-0.01818
 949.25; 8647.308;  206.150; 8325.117;-0.01690
 949.81; 8554.975;  208.817; 8271.117;-0.01503
 950.36; 8438.308;  198.483; 8157.117;-0.01508
 950.91; 8381.642;  207.150; 8037.783;-0.01866
 951.46; 8205.642;  203.817; 7873.117;-0.01843
 952.02; 8108.308;  207.150; 7734.117;-0.02107
 952.57; 7933.308;  207.150; 7606.450;-0.01877
 953.12; 7866.308;  218.483; 7526.117;-0.01976
 953.67; 7719.975;  218.150; 7443.783;-0.01629
 954.23; 7575.308;  215.817; 7359.450;-0.01293
 954.78; 7436.642;  208.150; 7234.450;-0.01232
 955.33; 7320.642;  218.150; 7119.783;-0.01246
 955.88; 7208.642;  217.150; 6980.117;-0.01443
 956.44; 7104.975;  230.483; 6838.450;-0.01717
 956.99; 7031.308;  228.817; 6737.117;-0.01920
 957.54; 6979.975;  223.817; 6672.783;-0.02021
 958.09; 6973.975;  222.150; 6636.783;-0.02225
 958.64; 6919.308;  206.817; 6607.450;-0.02066
 959.20; 6903.308;  203.483; 6532.450;-0.02473
 959.75; 6785.642;  199.817; 6496.450;-0.01950
 960.30; 6747.308;  218.150; 6441.783;-0.02081
 960.85; 6698.975;  225.150; 6424.450;-0.01882
 961.40; 6725.642;  228.817; 6381.117;-0.02366
 961.95; 6751.642;  231.817; 6360.783;-0.02685
 962.51; 6750.975;  239.483; 6360.117;-0.02688
 963.06; 6705.308;  242.817; 6380.117;-0.02242
 963.61; 6675.642;  234.150; 6314.783;-0.02504
 964.16; 6646.975;  235.150; 6258.450;-0.02715
 964.71; 6653.975;  222.483; 6212.117;-0.03091
 965.26; 6604.308;  213.150; 6253.117;-0.02455
 965.81; 6636.642;  210.817; 6289.117;-0.02415
 966.36; 6645.642;  208.483; 6323.783;-0.02228
 966.92; 6664.642;  216.150; 6305.117;-0.02491
 967.47; 6666.975;  218.483; 6338.117;-0.02273
 968.02; 6695.642;  232.483; 6354.117;-0.02358
 968.57; 6759.308;  234.817; 6375.450;-0.02633
 969.12; 6764.975;  219.817; 6368.783;-0.02712
 969.67; 6806.975;  204.483; 6420.783;-0.02618
 970.22; 6806.642;  194.150; 6469.783;-0.02271
 970.77; 6884.975;  199.817; 6539.117;-0.02307
 971.32; 6961.642;  197.483; 6593.117;-0.02433
 971.87; 7037.975;  198.817; 6693.117;-0.02247
 972.42; 7126.308;  215.150; 6793.117;-0.02146
 972.98; 7213.308;  220.817; 6908.783;-0.01934
 973.53; 7362.975;  231.483; 6996.117;-0.02294
 974.08; 7391.308;  215.483; 7040.450;-0.02177
 974.63; 7444.975;  223.483; 7078.450;-0.02262
 975.18; 7474.642;  218.483; 7103.117;-0.02283
 975.73; 7566.308;  224.817; 7157.450;-0.02489
 976.28; 7624.975;  221.483; 7219.117;-0.02449
 976.83; 7688.975;  221.483; 7315.450;-0.02229
 977.38; 7740.308;  219.483; 7373.783;-0.02170
 977.93; 7738.642;  222.150; 7387.450;-0.02078
 978.48; 7742.642;  228.483; 7365.783;-0.02235
 979.03; 7750.642;  234.817; 7358.117;-0.02330
 979.58; 7758.642;  221.483; 7329.117;-0.02548
 980.13; 7781.642;  207.150; 7367.783;-0.02440
 980.68; 7694.975;  186.483; 7310.450;-0.02283
 981.23; 7653.642;  185.817; 7278.117;-0.02241
 981.78; 7597.642;  207.150; 7207.450;-0.02356
 982.33; 7620.975;  219.150; 7257.117;-0.02189
 982.88; 7594.308;  232.483; 7211.783;-0.02317
 983.43; 7519.642;  218.150; 7145.783;-0.02283
 983.98; 7440.975;  215.150; 6984.117;-0.02837
 984.53; 7352.975;  203.817; 6873.450;-0.03015
 985.08; 7288.642;  209.817; 6835.783;-0.02871
 985.63; 7205.308;  211.150; 6787.117;-0.02678
 986.18; 7112.642;  218.817; 6756.783;-0.02302
 986.73; 6994.642;  218.483; 6610.450;-0.02535
 987.27; 6908.642;  227.483; 6521.117;-0.02595
 987.82; 6836.642;  238.483; 6431.783;-0.02750
 988.37; 6762.308;  243.150; 6400.783;-0.02478
 988.92; 6688.642;  234.150; 6351.117;-0.02333
 989.47; 6577.642;  214.483; 6285.117;-0.02044
 990.02; 6497.308;  208.483; 6199.117;-0.02110
 990.57; 6425.308;  208.150; 6083.117;-0.02459
 991.12; 6388.642;  215.150; 6044.450;-0.02491
 991.67; 6302.308;  213.817; 5969.117;-0.02444
 992.22; 6241.975;  200.483; 5915.450;-0.02413
 992.77; 6135.308;  200.150; 5802.450;-0.02507
 993.31; 6059.308;  204.817; 5735.783;-0.02469
 993.86; 5898.308;  230.483; 5683.783;-0.01676
 994.41; 5828.308;  235.150; 5580.117;-0.01971
 994.96; 5742.975;  226.483; 5473.117;-0.02178
 995.51; 5678.975;  218.817; 5377.783;-0.02464
 996.06; 5576.975;  208.483; 5293.783;-0.02354
 996.61; 5474.308;  222.483; 5201.783;-0.02314
 997.15; 5383.308;  236.150; 5083.450;-0.02607
 997.70; 5237.308;  241.150; 4965.117;-0.02433
 998.25; 5121.975;  247.483; 4873.450;-0.02273
 998.80; 4966.975;  248.483; 4740.117;-0.02140
 999.35; 4825.642;  249.483; 4623.450;-0.01963
 999.90; 4652.975;  236.150; 4455.117;-0.01990
1000.44; 4513.308;  224.483; 4340.450;-0.01787
1000.99; 4394.308;  232.483; 4190.783;-0.02178
1001.54; 4257.308;  237.150; 4067.450;-0.02101
1002.09; 4105.308;  231.817; 3939.117;-0.01904
1002.64; 4047.642;  238.483; 3855.450;-0.02248
1003.18; 3961.308;  240.483; 3766.783;-0.02332
1003.73; 3891.975;  238.483; 3661.450;-0.02831
1004.28; 3760.975;  226.817; 3584.450;-0.02225
1004.83; 3664.308;  209.483; 3488.117;-0.02273
1005.38; 3625.975;  210.150; 3420.783;-0.02690
1005.92; 3537.975;  219.150; 3321.783;-0.02925
1006.47; 3479.975;  236.817; 3231.783;-0.03458
1007.02; 3374.642;  235.483; 3140.117;-0.03372
1007.57; 3280.308;  222.817; 3087.450;-0.02830
1008.11; 3184.308;  211.817; 3028.450;-0.02339
1008.66; 3101.642;  205.150; 2973.450;-0.01966
1009.21; 3010.642;  192.483; 2907.783;-0.01615
1009.75; 2950.642;  177.817; 2862.117;-0.01409
1010.30; 2876.642;  170.150; 2793.117;-0.01361
1010.85; 2854.642;  176.817; 2712.783;-0.02364
1011.40; 2773.975;  204.150; 2628.450;-0.02532
1011.94; 2707.308;  221.817; 2545.783;-0.02918
1012.49; 2607.308;  216.483; 2464.450;-0.02676
1013.04; 2537.642;  194.150; 2362.117;-0.03381
1013.58; 2443.975;  184.150; 2325.117;-0.02346
1014.13; 2366.308;  188.483; 2268.117;-0.02004
1014.68; 2316.308;  196.483; 2233.450;-0.01732
1015.23; 2263.642;  203.150; 2181.450;-0.01768
1015.77; 2235.642;  199.817; 2113.117;-0.02696
1016.32; 2170.975;  204.817; 2072.450;-0.02233
1016.87; 2130.642;  209.483; 2012.783;-0.02750
1017.41; 2064.975;  206.817; 1977.450;-0.02095
1017.96; 2013.308;  194.817; 1953.450;-0.01454
1018.50; 1961.308;  186.483; 1926.450;-0.00861
1019.05; 1912.308;  188.483; 1903.450;-0.00224
1019.60; 1866.642;  182.817; 1815.783;-0.01332
1020.14; 1824.642;  196.150; 1752.783;-0.01960
1020.69; 1785.975;  196.150; 1698.117;-0.02469
1021.24; 1736.642;  209.483; 1650.450;-0.02523
1021.78; 1671.308;  188.483; 1620.450;-0.01516
1022.33; 1638.642;  190.150; 1592.450;-0.01408
1022.87; 1596.975;  182.817; 1587.783;-0.00283
1023.42; 1580.308;  198.150; 1567.117;-0.00416
1023.97; 1531.642;  200.150; 1516.117;-0.00509
1024.51; 1514.975;  212.150; 1465.117;-0.01695
1025.06; 1453.975;  200.483; 1401.117;-0.01871
1025.60; 1422.975;  198.817; 1340.783;-0.03018
1026.15; 1364.642;  181.150; 1307.783;-0.02138
1026.70; 1346.975;  185.483; 1284.783;-0.02390
1027.24; 1321.308;  195.483; 1279.783;-0.01632
1027.79; 1304.975;  200.483; 1270.450;-0.01379
1028.33; 1278.308;  197.483; 1252.450;-0.01052
1028.88; 1243.308;  188.817; 1215.450;-0.01163
1029.42; 1225.642;  208.150; 1198.450;-0.01176
1029.97; 1196.642;  197.817; 1156.450;-0.01784
1030.51; 1181.642;  190.150; 1127.117;-0.02456
1031.06; 1157.642;  182.817; 1088.783;-0.03181
1031.61; 1125.642;  192.483; 1063.117;-0.03012
1032.15; 1107.642;  210.150; 1050.450;-0.02860
1032.70; 1099.975;  202.817; 1024.117;-0.03837
1033.24; 1117.642;  206.483; 1018.117;-0.05023
1033.79; 1104.975;  200.817; 1020.450;-0.04262
1034.33; 1090.975;  199.817; 1016.450;-0.03793
1034.88; 1051.308;  201.817; 1008.783;-0.02230
1035.42; 1019.975;  202.817;  979.450;-0.02209
1035.97;  989.308;  204.483;  950.450;-0.02205
1036.51;  989.642;  206.483;  931.450;-0.03353
1037.06;  999.975;  200.817;  944.117;-0.03147
1037.60;  998.975;  207.150;  948.783;-0.02844
1038.14;  970.642;  204.150;  928.783;-0.02439
1038.69;  959.975;  222.150;  927.783;-0.01937
1039.23;  963.308;  234.483;  935.783;-0.01672
1039.78;  976.642;  235.150;  948.783;-0.01663
1040.32;  969.642;  224.483;  915.783;-0.03258
1040.87;  952.975;  208.483;  887.117;-0.04022
1041.41;  954.975;  198.150;  864.117;-0.05554
1041.96;  943.308;  200.817;  882.783;-0.03693
1042.50;  943.975;  197.817;  893.117;-0.03066
1043.04;  928.308;  213.817;  899.117;-0.01812
1043.59;  926.642;  217.150;  867.450;-0.03783
1044.13;  909.642;  212.483;  869.450;-0.02579
1044.68;  894.642;  205.817;  862.117;-0.02101
1045.22;  891.642;  199.150;  873.783;-0.01135
1045.76;  878.308;  201.817;  869.450;-0.00572
1046.31;  857.975;  193.483;  861.783; 0.00248
1046.85;  838.642;  200.483;  842.117; 0.00236
1047.40;  830.642;  202.483;  813.783;-0.01181
1047.94;  835.308;  215.150;  808.783;-0.01898
1048.48;  833.308;  211.150;  810.117;-0.01650
1049.03;  836.308;  214.483;  793.450;-0.03101
1049.57;  836.642;  229.150;  787.117;-0.03693
1050.11;  832.642;  222.817;  774.117;-0.04382
1050.66;  811.642;  218.483;  779.117;-0.02449
1051.20;  803.975;  206.483;  794.450;-0.00698
1051.74;  770.975;  200.817;  788.117; 0.01286
1052.29;  751.308;  200.150;  780.783; 0.02263
1052.83;  749.975;  199.150;  748.117;-0.00147
1053.37;  765.308;  224.817;  744.783;-0.01681
1053.92;  791.975;  234.150;  739.783;-0.04266
1054.46;  785.308;  236.483;  734.117;-0.04252
1055.00;  793.642;  231.483;  739.117;-0.04431
1055.55;  790.975;  230.817;  738.117;-0.04305
1056.09;  767.308;  223.817;  747.783;-0.01589
1056.63;  757.975;  215.817;  711.783;-0.03867
1057.17;  733.308;  216.483;  709.117;-0.02082
1057.72;  730.975;  225.150;  697.450;-0.02978
1058.26;  691.642;  223.483;  705.783; 0.01292
1058.80;  689.975;  229.817;  700.450; 0.00978
1059.35;  672.642;  230.483;  686.450; 0.01336
1059.89;  691.642;  230.150;  672.450;-0.01845
1060.43;  676.975;  227.817;  654.783;-0.02201
1060.97;  686.642;  223.817;  667.117;-0.01872
1061.52;  666.308;  231.150;  682.450; 0.01582
1062.06;  661.642;  231.483;  671.450; 0.00979
1062.60;  650.308;  236.483;  658.450; 0.00846
1063.14;  653.642;  232.483;  640.783;-0.01347
1063.69;  643.975;  216.483;  640.117;-0.00394
1064.23;  644.642;  208.817;  619.783;-0.02551
1064.77;  622.308;  200.483;  598.450;-0.02529
1065.31;  605.975;  201.817;  577.450;-0.03179
1065.85;  593.642;  206.483;  567.117;-0.03082
1066.40;  594.975;  205.150;  579.450;-0.01765
1066.94;  603.975;  217.817;  579.117;-0.02890
1067.48;  593.308;  209.150;  587.783;-0.00629
1068.02;  612.308;  233.817;  562.450;-0.06134
1068.56;  614.642;  216.817;  564.783;-0.05815
1069.10;  607.308;  212.817;  549.783;-0.06845
1069.65;  591.975;  195.817;  566.450;-0.02892
1070.19;  583.308;  208.817;  566.783;-0.01960
1070.73;  589.642;  223.817;  582.783;-0.00822
1071.27;  571.308;  215.817;  567.117;-0.00515
1071.81;  552.975;  207.150;  562.117; 0.01133
1072.35;  565.975;  201.817;  549.117;-0.02059
1072.90;  555.642;  197.150;  546.783;-0.01087
1073.44;  562.308;  202.817;  540.117;-0.02767
1073.98;  533.642;  206.150;  531.450;-0.00292
1074.52;  540.642;  224.483;  538.783;-0.00256
1075.06;  545.642;  218.483;  542.450;-0.00426
1075.60;  540.642;  207.483;  531.450;-0.01215
1076.14;  536.642;  204.817;  514.117;-0.03053
1076.68;  527.642;  207.150;  504.450;-0.03262
1077.22;  524.308;  225.817;  504.783;-0.02938
1077.76;  506.642;  214.817;  498.117;-0.01288
1078.31;  500.308;  229.817;  499.783;-0.00084
1078.85;  510.308;  226.483;  517.117; 0.01029
1079.39;  539.308;  243.817;  525.450;-0.02086
1079.93;  527.642;  237.817;  507.783;-0.03083
1080.47;  518.975;  227.483;  476.450;-0.06848
1081.01;  496.975;  216.150;  474.783;-0.03575
1081.55;  503.975;  208.483;  488.783;-0.02292
1082.09;  498.975;  205.817;  488.783;-0.01537
1082.63;  508.642;  210.150;  496.450;-0.01811
1083.17;  508.975;  221.150;  500.783;-0.01254
1083.71;  513.975;  228.817;  501.450;-0.01951
1084.25;  493.308;  224.483;  471.117;-0.03742
1084.79;  491.308;  214.483;  446.450;-0.07678
1085.33;  470.975;  202.817;  450.783;-0.03400
1085.87;  479.308;  199.483;  468.450;-0.01719
1086.41;  471.975;  214.483;  471.450;-0.00089
1086.95;  500.308;  222.150;  467.117;-0.05519
1087.49;  487.975;  225.817;  454.783;-0.05879
1088.03;  488.308;  216.817;  454.117;-0.05846
1088.57;  466.975;  219.817;  450.783;-0.02943
1089.11;  477.975;  222.150;  448.117;-0.05390
1089.65;  490.975;  233.150;  458.783;-0.05792
1090.19;  499.642;  238.483;  468.117;-0.05587
1090.73;  487.642;  240.483;  471.783;-0.02880
1091.27;  472.308;  238.817;  466.117;-0.01167
1091.81;  467.642;  238.483;  458.117;-0.01844
1092.35;  466.308;  247.483;  461.450;-0.00975
1092.89;  461.308;  232.150;  457.450;-0.00737
1093.43;  456.642;  223.817;  445.783;-0.02074
1093.97;  450.308;  210.150;  441.117;-0.01695
1094.51;  440.642;  208.483;  440.450;-0.00036
1095.04;  425.308;  218.483;  442.783; 0.03523
1095.58;  441.308;  238.817;  436.783;-0.00982
1096.12;  458.975;  242.817;  428.783;-0.06534
1096.66;  463.308;  239.817;  430.450;-0.06906
1097.20;  457.308;  235.817;  449.450;-0.01569
1097.74;  445.642;  246.817;  456.783; 0.02368
1098.28;  441.642;  235.817;  457.117; 0.03148
1098.82;  434.975;  230.483;  453.117; 0.03691
1099.36;  428.308;  228.150;  446.450; 0.03768
1099.89;  425.975;  230.150;  447.450; 0.04519

