
Integration time [ms]:   0.300
Averaging Nr. [scans]: 1
Smoothing Nr. [pixels]: 1
Data measured with spectrometer [name]: 1906252U1
Wave   ;Sample   ;Dark     ;Reference;Absorbance
[nm]   ;[counts] ;[counts] ;[counts] ;[A.U]

 161.30;  300.824;  271.207;  271.637; 0.00000
 161.90;  267.857;  265.524;  261.712; 0.00000
 162.51;  263.563;  259.038;  260.433;-0.51123
 163.11;  270.973;  265.693;  251.834; 0.00000
 163.71;  277.271;  276.696;  266.803; 0.00000
 164.31;  282.277;  294.270;  273.488; 0.00000
 164.91;  280.540;  288.393;  287.410; 0.00000
 165.52;  278.738;  277.299;  279.261; 0.13461
 166.12;  279.216;  271.979;  273.718;-0.61942
 166.72;  284.257;  272.971;  259.755; 0.00000
 167.32;  302.205;  271.656;  271.040; 0.00000
 167.93;  289.030;  261.266;  267.518;-0.64746
 168.53;  281.801;  254.112;  260.296;-0.65108
 169.13;  269.091;  264.427;  257.261; 0.00000
 169.73;  278.849;  271.677;  266.351; 0.00000
 170.33;  300.312;  291.614;  320.561; 0.52220
 170.94;  331.342;  317.756;  347.746; 0.34389
 171.54;  354.068;  335.278;  387.239; 0.44176
 172.14;  364.024;  338.926;  375.538; 0.16397
 172.74;  346.346;  324.358;  373.181; 0.34644
 173.34;  336.394;  319.589;  355.569; 0.33064
 173.95;  319.085;  309.596;  343.923; 0.55843
 174.55;  333.390;  318.289;  355.228; 0.38848
 175.15;  337.982;  320.689;  367.155; 0.42926
 175.75;  347.364;  322.370;  380.195; 0.36427
 176.35;  340.521;  332.415;  382.036; 0.78686
 176.95;  347.371;  327.740;  392.907; 0.52109
 177.56;  352.816;  327.608;  398.355; 0.44818
 178.16;  342.103;  316.738;  399.298; 0.51253
 178.76;  340.307;  316.306;  398.487; 0.53455
 179.36;  339.510;  310.874;  401.343; 0.49958
 179.96;  353.989;  304.800;  395.813; 0.26723
 180.56;  351.472;  308.938;  392.969; 0.29570
 181.17;  360.934;  318.009;  403.448; 0.29895
 181.77;  387.659;  318.897;  417.181; 0.15513
 182.37;  376.926;  306.653;  404.111; 0.14203
 182.97;  373.604;  319.309;  413.789; 0.24058
 183.57;  365.765;  323.525;  427.944; 0.39306
 184.17;  389.265;  336.736;  473.104; 0.41432
 184.78;  413.420;  316.624;  484.587; 0.23936
 185.38;  417.327;  315.012;  504.833; 0.26840
 185.98;  430.451;  315.783;  504.638; 0.21668
 186.58;  431.923;  316.598;  510.449; 0.22554
 187.18;  428.480;  313.002;  491.678; 0.18957
 187.78;  463.202;  324.256;  526.070; 0.16210
 188.38;  478.626;  331.840;  541.159; 0.15412
 188.98;  494.332;  337.804;  574.199; 0.17904
 189.59;  498.011;  332.575;  567.529; 0.15235
 190.19;  493.213;  326.870;  580.708; 0.18355
 190.79;  508.768;  326.914;  573.939; 0.13302
 191.39;  496.102;  317.159;  564.285; 0.14020
 191.99;  496.192;  322.498;  545.363; 0.10825
 192.59;  483.099;  317.307;  539.929; 0.12800
 193.19;  481.201;  313.765;  525.712; 0.10238
 193.79;  476.430;  325.164;  530.280; 0.13226
 194.39;  455.162;  328.250;  517.658; 0.17390
 195.00;  433.661;  327.216;  511.139; 0.23751
 195.60;  415.245;  305.566;  480.732; 0.20333
 196.20;  418.641;  304.088;  469.473; 0.15949
 196.80;  411.497;  305.278;  453.989; 0.14614
 197.40;  404.018;  313.686;  455.186; 0.19491
 198.00;  401.613;  320.693;  452.457; 0.21174
 198.60;  386.442;  317.270;  442.943; 0.25931
 199.20;  375.356;  312.435;  427.513; 0.26219
 199.80;  354.278;  303.957;  416.753; 0.35054
 200.40;  334.056;  299.492;  396.868; 0.44982
 201.00;  320.944;  293.841;  371.434; 0.45681
 201.60;  324.575;  292.845;  340.403; 0.17576
 202.21;  338.410;  298.995;  352.240; 0.13062
 202.81;  348.731;  303.760;  367.883; 0.15408
 203.41;  339.782;  301.801;  377.921; 0.30194
 204.01;  333.138;  296.447;  373.611; 0.32286
 204.61;  326.999;  287.965;  374.799; 0.34725
 205.21;  339.208;  280.528;  391.328; 0.27605
 205.81;  337.121;  276.000;  394.567; 0.28777
 206.41;  335.547;  281.190;  389.667; 0.30008
 207.01;  318.383;  291.585;  373.516; 0.48534
 207.61;  305.081;  290.832;  349.221; 0.61256
 208.21;  299.954;  294.007;  340.088; 0.88923
 208.81;  311.247;  285.376;  350.048; 0.39790
 209.41;  310.468;  292.971;  355.294; 0.55167
 210.01;  314.325;  286.985;  361.835; 0.43738
 210.61;  304.486;  290.534;  351.990; 0.64392
 211.21;  312.396;  293.399;  356.219; 0.51941
 211.81;  315.122;  300.157;  352.258; 0.54176
 212.41;  313.709;  301.896;  344.513; 0.55721
 213.01;  310.803;  296.332;  351.625; 0.58215
 213.61;  302.514;  285.263;  357.339; 0.62097
 214.21;  315.598;  282.939;  368.411; 0.41782
 214.81;  304.919;  278.704;  361.387; 0.49886
 215.41;  307.181;  282.466;  362.645; 0.51111
 216.01;  299.056;  278.247;  362.189; 0.60573
 216.61;  308.318;  287.920;  357.792; 0.53473
 217.21;  306.907;  290.599;  357.391; 0.61232
 217.81;  304.655;  297.221;  367.800; 0.97745
 218.41;  312.606;  301.628;  379.081; 0.84855
 219.01;  310.352;  307.801;  388.505; 1.50017
 219.61;  314.087;  301.739;  384.906; 0.82835
 220.21;  304.370;  297.568;  378.507; 1.07550
 220.81;  322.915;  283.737;  372.713; 0.35622
 221.41;  325.559;  284.091;  376.024; 0.34575
 222.01;  345.256;  280.426;  372.049; 0.15023
 222.61;  335.647;  298.953;  367.451; 0.27109
 223.21;  325.942;  301.813;  357.103; 0.36012
 223.81;  313.521;  301.952;  360.676; 0.70550
 224.41;  306.828;  281.875;  343.618; 0.39347
 225.01;  296.138;  269.317;  340.250; 0.42238
 225.61;  283.239;  274.108;  341.033; 0.86508
 226.21;  279.108;  273.112;  349.918; 1.10757
 226.81;  297.026;  286.490;  349.175; 0.77449
 227.41;  306.468;  284.059;  344.282; 0.42934
 228.01;  323.105;  302.172;  351.241; 0.36998
 228.61;  332.023;  306.727;  360.474; 0.32730
 229.21;  323.915;  303.825;  362.700; 0.46696
 229.81;  326.662;  308.998;  372.791; 0.55769
 230.41;  315.933;  299.055;  383.396; 0.69873
 231.01;  326.139;  300.808;  405.942; 0.61809
 231.61;  311.624;  287.307;  401.095; 0.67019
 232.21;  324.031;  300.328;  383.489; 0.54512
 232.81;  319.483;  296.307;  370.928; 0.50783
 233.41;  337.551;  302.578;  372.995; 0.30395
 234.00;  331.794;  298.240;  379.918; 0.38636
 234.60;  343.491;  290.487;  363.623; 0.13982
 235.20;  320.795;  295.152;  359.264; 0.39797
 235.80;  319.632;  295.330;  365.432; 0.46009
 236.40;  325.250;  302.765;  379.044; 0.53050
 237.00;  341.353;  303.584;  384.824; 0.33263
 237.60;  324.833;  294.000;  377.651; 0.43345
 238.20;  313.733;  295.121;  389.214; 0.70377
 238.80;  301.203;  274.112;  389.668; 0.62996
 239.40;  328.291;  279.177;  403.402; 0.40300
 240.00;  332.195;  284.599;  402.640; 0.39446
 240.59;  349.514;  298.133;  401.312; 0.30279
 241.19;  329.941;  297.989;  399.745; 0.50307
 241.79;  333.247;  288.710;  384.715; 0.33357
 242.39;  331.114;  292.222;  383.909; 0.37245
 242.99;  343.321;  286.642;  375.121; 0.19342
 243.59;  329.280;  289.230;  388.763; 0.39536
 244.19;  314.087;  286.160;  385.560; 0.55137
 244.79;  312.862;  287.511;  384.652; 0.58341
 245.39;  329.767;  287.293;  395.554; 0.40635
 245.98;  327.998;  273.053;  391.453; 0.33342
 246.58;  319.491;  274.487;  389.290; 0.40670
 247.18;  329.221;  285.342;  384.364; 0.35347
 247.78;  331.628;  295.696;  398.758; 0.45762
 248.38;  333.703;  288.656;  421.162; 0.46857
 248.98;  320.507;  277.356;  419.988; 0.51922
 249.58;  325.858;  265.673;  430.671; 0.43799
 250.17;  340.713;  275.285;  426.842; 0.36481
 250.77;  342.503;  283.143;  431.967; 0.39918
 251.37;  335.610;  286.929;  425.089; 0.45303
 251.97;  325.671;  270.293;  429.805; 0.45945
 252.57;  327.428;  265.298;  436.882; 0.44118
 253.17;  333.705;  272.929;  449.172; 0.46238
 253.77;  345.154;  284.186;  466.282; 0.47520
 254.36;  344.998;  295.474;  468.774; 0.54399
 254.96;  344.454;  295.333;  480.567; 0.57645
 255.56;  334.189;  288.604;  484.301; 0.63276
 256.16;  334.741;  278.462;  506.509; 0.60768
 256.76;  330.340;  277.524;  496.109; 0.61686
 257.36;  325.506;  276.735;  508.603; 0.67708
 257.95;  311.955;  264.992;  503.713; 0.70614
 258.55;  319.319;  264.239;  518.084; 0.66358
 259.15;  318.027;  260.564;  510.454; 0.63836
 259.75;  326.902;  269.345;  523.998; 0.64585
 260.35;  333.853;  267.461;  538.318; 0.61062
 260.94;  339.603;  268.819;  539.764; 0.58295
 261.54;  338.284;  275.530;  547.771; 0.63731
 262.14;  331.963;  279.723;  553.422; 0.71928
 262.74;  334.727;  296.084;  592.169; 0.88435
 263.34;  335.488;  285.302;  604.600; 0.80361
 263.93;  333.429;  271.414;  619.201; 0.74882
 264.53;  340.344;  269.158;  628.783; 0.70346
 265.13;  342.112;  270.950;  628.566; 0.70117
 265.73;  338.685;  275.426;  648.466; 0.77063
 266.33;  343.961;  278.566;  678.397; 0.78633
 266.92;  338.248;  275.029;  689.673; 0.81682
 267.52;  336.964;  279.954;  705.726; 0.87323
 268.12;  323.498;  273.264;  717.281; 0.94640
 268.72;  333.713;  281.951;  749.175; 0.95552
 269.31;  355.372;  293.596;  782.505; 0.89841
 269.91;  352.896;  296.813;  783.686; 0.93858
 270.51;  350.978;  298.884;  823.747; 1.00325
 271.11;  334.926;  296.018;  844.685; 1.14927
 271.70;  332.249;  281.274;  877.686; 1.06819
 272.30;  334.133;  270.568;  887.924; 0.98732
 272.90;  346.960;  264.784;  909.412; 0.89456
 273.50;  350.419;  274.785;  916.521; 0.92864
 274.09;  361.426;  285.359;  947.539; 0.93978
 274.69;  367.559;  293.425;  961.690; 0.95493
 275.29;  396.252;  297.126; 1011.041; 0.85746
 275.89;  404.071;  301.162; 1057.168; 0.86607
 276.48;  413.622;  306.441; 1108.365; 0.87401
 277.08;  404.599;  303.217; 1149.330; 0.92147
 277.68;  398.855;  300.562; 1156.928; 0.94014
 278.28;  388.987;  297.934; 1188.748; 0.99049
 278.87;  395.449;  305.120; 1219.213; 1.00516
 279.47;  411.935;  316.402; 1279.019; 1.00330
 280.07;  418.456;  311.564; 1306.537; 0.96887
 280.66;  426.386;  305.599; 1329.806; 0.92836
 281.26;  447.524;  299.502; 1356.605; 0.85379
 281.86;  462.052;  299.353; 1408.460; 0.83359
 282.46;  481.920;  289.111; 1464.667; 0.78512
 283.05;  497.772;  270.001; 1525.842; 0.74144
 283.65;  515.512;  269.267; 1577.248; 0.72523
 284.25;  509.596;  276.537; 1628.707; 0.76356
 284.84;  509.023;  297.639; 1660.819; 0.80948
 285.44;  545.575;  304.585; 1722.349; 0.76960
 286.04;  579.530;  306.626; 1767.304; 0.72855
 286.63;  593.093;  299.604; 1827.551; 0.71652
 287.23;  581.796;  285.934; 1878.582; 0.73103
 287.83;  592.531;  285.987; 1956.635; 0.73639
 288.42;  601.369;  282.947; 2012.456; 0.73492
 289.02;  619.260;  281.018; 2081.351; 0.72613
 289.62;  636.254;  274.153; 2105.373; 0.70391
 290.21;  675.428;  278.965; 2173.882; 0.67939
 290.81;  705.730;  296.139; 2171.832; 0.66081
 291.41;  728.509;  301.675; 2217.279; 0.65205
 292.00;  731.819;  287.695; 2273.257; 0.65038
 292.60;  754.814;  266.816; 2355.570; 0.63147
 293.20;  771.857;  269.053; 2441.953; 0.63564
 293.79;  802.424;  275.331; 2498.541; 0.62509
 294.39;  816.001;  284.326; 2544.463; 0.62849
 294.99;  827.977;  280.435; 2588.095; 0.62475
 295.58;  856.861;  284.687; 2619.961; 0.61081
 296.18;  870.805;  271.100; 2672.236; 0.60248
 296.78;  913.093;  267.474; 2741.524; 0.58343
 297.37;  927.808;  256.039; 2819.912; 0.58168
 297.97; 1006.673;  255.858; 2927.442; 0.55124
 298.57; 1055.452;  262.727; 2989.557; 0.53654
 299.16; 1101.997;  278.359; 3083.789; 0.53226
 299.76; 1112.572;  281.775; 3176.366; 0.54209
 300.35; 1130.918;  281.214; 3269.362; 0.54613
 300.95; 1188.345;  278.404; 3324.462; 0.52473
 301.55; 1214.376;  287.229; 3346.846; 0.51852
 302.14; 1233.553;  278.314; 3431.366; 0.51862
 302.74; 1247.717;  277.164; 3537.862; 0.52629
 303.33; 1301.772;  277.506; 3665.575; 0.51954
 303.93; 1363.140;  284.053; 3763.621; 0.50847
 304.53; 1420.256;  290.889; 3809.743; 0.49357
 305.12; 1436.263;  285.666; 3889.067; 0.49579
 305.72; 1480.948;  304.345; 3962.749; 0.49266
 306.31; 1498.352;  292.556; 4062.826; 0.49510
 306.91; 1584.430;  290.122; 4183.574; 0.47830
 307.51; 1634.596;  280.000; 4278.734; 0.47011
 308.10; 1683.580;  295.710; 4394.048; 0.47026
 308.70; 1708.593;  291.190; 4468.751; 0.46943
 309.29; 1740.312;  287.634; 4547.826; 0.46726
 309.89; 1800.512;  264.902; 4638.675; 0.45458
 310.48; 1840.287;  273.673; 4739.754; 0.45496
 311.08; 1892.980;  268.620; 4876.118; 0.45278
 311.68; 1907.892;  273.221; 4959.384; 0.45739
 312.27; 1970.127;  278.703; 5074.278; 0.45259
 312.87; 2047.041;  271.869; 5225.848; 0.44571
 313.46; 2175.537;  276.691; 5385.013; 0.42979
 314.06; 2246.416;  276.193; 5529.885; 0.42595
 314.65; 2295.430;  282.238; 5632.559; 0.42449
 315.25; 2323.135;  283.262; 5774.255; 0.43005
 315.85; 2376.422;  277.637; 5914.876; 0.42910
 316.44; 2449.485;  287.913; 6071.938; 0.42746
 317.04; 2493.206;  295.255; 6216.984; 0.43043
 317.63; 2559.885;  310.823; 6400.341; 0.43258
 318.23; 2591.486;  298.737; 6546.296; 0.43535
 318.82; 2657.751;  293.221; 6674.883; 0.43119
 319.42; 2733.421;  273.276; 6781.545; 0.42250
 320.01; 2819.503;  280.055; 6929.646; 0.41806
 320.61; 2895.195;  290.511; 7164.652; 0.42146
 321.20; 2923.180;  285.758; 7272.939; 0.42312
 321.80; 2974.941;  292.860; 7497.718; 0.42915
 322.39; 3046.062;  275.154; 7636.540; 0.42434
 322.99; 3144.737;  275.755; 7857.556; 0.42204
 323.58; 3277.735;  286.597; 7977.531; 0.41014
 324.18; 3355.229;  287.901; 8124.673; 0.40738
 324.77; 3381.557;  292.485; 8318.013; 0.41465
 325.37; 3408.375;  278.984; 8442.167; 0.41640
 325.96; 3464.843;  276.253; 8588.958; 0.41614
 326.56; 3588.644;  298.768; 8771.095; 0.41082
 327.15; 3679.985;  300.036; 8947.778; 0.40799
 327.75; 3781.408;  300.925; 9129.536; 0.40425
 328.34; 3836.392;  272.723; 9291.838; 0.40327
 328.94; 3894.471;  266.072; 9447.905; 0.40321
 329.53; 3966.442;  277.765; 9658.876; 0.40538
 330.13; 4068.680;  293.098; 9872.460; 0.40435
 330.72; 4136.095;  297.428;10112.576; 0.40772
 331.32; 4198.251;  296.807;10347.750; 0.41098
 331.91; 4268.240;  286.021;10578.045; 0.41238
 332.51; 4337.655;  290.846;10832.428; 0.41579
 333.10; 4462.916;  280.941;11112.686; 0.41332
 333.69; 4567.094;  268.720;11343.870; 0.41105
 334.29; 4604.194;  259.020;11372.294; 0.40783
 334.88; 4604.466;  263.526;11404.218; 0.40933
 335.48; 4616.749;  274.151;11347.513; 0.40653
 336.07; 4692.931;  277.361;11521.065; 0.40592
 336.67; 4728.965;  271.793;11561.792; 0.40363
 337.26; 4755.912;  270.478;11724.744; 0.40716
 337.86; 4827.602;  274.661;11795.073; 0.40318
 338.45; 4900.429;  285.081;11996.201; 0.40439
 339.04; 4936.944;  280.248;12122.714; 0.40536
 339.64; 4943.056;  279.247;12324.855; 0.41209
 340.23; 4962.748;  276.541;12444.594; 0.41440
 340.83; 5058.487;  283.446;12579.002; 0.41077
 341.42; 5139.289;  284.034;12728.085; 0.40875
 342.02; 5207.265;  280.810;12860.717; 0.40714
 342.61; 5237.340;  285.029;12994.842; 0.40933
 343.20; 5301.173;  280.703;13173.363; 0.40960
 343.80; 5361.012;  275.024;13326.514; 0.40928
 344.39; 5403.957;  277.525;13574.777; 0.41395
 344.99; 5476.764;  284.701;13698.586; 0.41221
 345.58; 5549.176;  281.629;13941.331; 0.41383
 346.17; 5622.797;  272.425;14086.941; 0.41195
 346.77; 5710.700;  263.601;14425.499; 0.41496
 347.36; 5805.947;  267.766;14640.403; 0.41417
 347.96; 5892.955;  271.456;14918.073; 0.41589
 348.55; 5912.616;  272.039;15018.413; 0.41736
 349.14; 5934.461;  269.152;15148.264; 0.41935
 349.74; 6012.845;  282.193;15379.635; 0.42070
 350.33; 6132.831;  292.264;15619.281; 0.41900
 350.92; 6237.628;  292.029;15990.758; 0.42167
 351.52; 6340.244;  276.988;16197.719; 0.41926
 352.11; 6432.892;  277.642;16449.038; 0.41950
 352.70; 6526.988;  293.221;16652.467; 0.41901
 353.30; 6615.552;  299.069;16923.354; 0.42027
 353.89; 6728.018;  289.556;17199.826; 0.41937
 354.49; 6860.309;  295.537;17471.125; 0.41769
 355.08; 6959.430;  303.789;17648.240; 0.41597
 355.67; 7021.403;  306.509;17850.877; 0.41710
 356.27; 7046.615;  292.678;18013.082; 0.41892
 356.86; 7156.247;  288.376;18230.048; 0.41704
 357.45; 7257.529;  297.756;18507.331; 0.41770
 358.05; 7398.489;  297.214;18684.613; 0.41318
 358.64; 7411.838;  292.504;18894.298; 0.41712
 359.23; 7448.029;  289.300;19081.825; 0.41915
 359.83; 7471.258;  289.121;19433.380; 0.42578
 360.42; 7559.802;  293.174;19722.600; 0.42713
 361.01; 7616.032;  287.355;19981.487; 0.42931
 361.61; 7731.428;  287.502;20183.522; 0.42696
 362.20; 7781.627;  294.987;20496.718; 0.43110
 362.79; 7879.521;  302.910;20634.303; 0.42869
 363.38; 7930.385;  301.613;20815.514; 0.42959
 363.98; 8063.933;  289.171;20943.715; 0.42433
 364.57; 8157.702;  277.744;21176.149; 0.42359
 365.16; 8228.031;  288.573;21351.502; 0.42373
 365.76; 8247.140;  293.720;21537.287; 0.42667
 366.35; 8273.413;  294.920;21731.542; 0.42924
 366.94; 8378.348;  286.459;21913.791; 0.42695
 367.53; 8461.019;  286.426;22067.466; 0.42561
 368.13; 8556.364;  291.994;22246.489; 0.42431
 368.72; 8506.497;  285.482;22413.295; 0.43001
 369.31; 8589.890;  292.281;22597.374; 0.42945
 369.91; 8642.050;  283.382;22746.877; 0.42934
 370.50; 8766.592;  291.699;22820.059; 0.42460
 371.09; 8786.801;  278.017;22946.909; 0.42556
 371.68; 8803.887;  286.967;23106.324; 0.42802
 372.28; 8908.138;  294.984;23340.584; 0.42743
 372.87; 8961.051;  297.367;23443.502; 0.42678
 373.46; 9083.488;  297.723;23614.255; 0.42388
 374.05; 9102.735;  287.889;23758.158; 0.42530
 374.65; 9159.067;  290.440;23950.173; 0.42615
 375.24; 9192.908;  272.918;24146.349; 0.42755
 375.83; 9282.255;  275.848;24331.370; 0.42666
 376.42; 9345.427;  273.516;24515.563; 0.42687
 377.02; 9435.031;  293.907;24527.502; 0.42342
 377.61; 9542.537;  288.112;24762.668; 0.42237
 378.20; 9668.000;  297.747;24944.118; 0.42000
 378.79; 9758.104;  297.015;25086.217; 0.41832
 379.38; 9812.673;  282.191;25204.109; 0.41747
 379.98; 9870.046;  267.243;25344.469; 0.41688
 380.57; 9970.633;  272.112;25606.751; 0.41701
 381.16;10034.658;  291.609;25727.129; 0.41675
 381.75;10119.348;  289.589;25767.151; 0.41362
 382.35;10155.460;  283.703;25937.612; 0.41476
 382.94;10254.881;  271.231;26182.039; 0.41419
 383.53;10439.606;  279.541;26558.760; 0.41272
 384.12;10589.155;  269.432;26865.627; 0.41115
 384.71;10703.885;  284.069;27028.687; 0.40938
 385.31;10749.067;  287.699;27353.893; 0.41284
 385.90;10824.604;  299.731;27598.110; 0.41392
 386.49;10911.165;  283.306;27919.987; 0.41504
 387.08;11016.791;  296.763;28085.602; 0.41367
 387.67;11151.116;  302.047;28384.267; 0.41304
 388.26;11304.929;  312.463;28670.094; 0.41157
 388.86;11474.264;  297.866;29041.131; 0.41023
 389.45;11690.080;  285.685;29324.329; 0.40590
 390.04;11864.569;  279.860;29566.863; 0.40279
 390.63;11989.002;  284.795;29878.048; 0.40285
 391.22;12044.994;  294.422;30097.179; 0.40420
 391.81;12162.098;  303.408;30368.117; 0.40402
 392.41;12303.751;  324.211;30517.642; 0.40147
 393.00;12541.140;  349.022;30747.606; 0.39677
 393.59;12669.478;  379.676;31111.212; 0.39804
 394.18;12778.147;  399.780;31505.223; 0.40017
 394.77;12806.105;  433.703;31930.599; 0.40581
 395.36;13029.391;  473.557;32244.356; 0.40318
 395.95;13182.218;  524.323;32561.017; 0.40329
 396.55;13313.805;  566.236;32856.406; 0.40364
 397.14;13411.370;  594.577;33298.717; 0.40682
 397.73;13609.288;  601.786;33627.642; 0.40466
 398.32;13872.501;  612.294;34204.404; 0.40369
 398.91;14125.033;  621.039;34614.988; 0.40094
 399.50;14482.206;  632.059;35200.379; 0.39722
 400.09;14805.388;  605.452;35675.306; 0.39265
 400.68;15128.858;  582.293;36366.134; 0.39093
 401.27;15326.367;  548.561;37014.694; 0.39228
 401.87;15543.909;  525.771;37604.957; 0.39251
 402.46;15781.418;  501.053;38119.893; 0.39127
 403.05;16081.578;  484.389;38675.942; 0.38892
 403.64;16389.450;  490.521;39240.769; 0.38691
 404.23;16646.133;  484.797;39841.080; 0.38654
 404.82;16892.093;  502.588;40438.695; 0.38680
 405.41;17127.239;  491.629;41140.816; 0.38801
 406.00;17394.798;  497.890;41752.976; 0.38767
 406.59;17630.383;  479.966;42383.807; 0.38798
 407.18;17950.694;  482.149;42943.385; 0.38574
 407.77;18176.017;  466.520;43500.038; 0.38560
 408.37;18477.963;  484.641;43973.019; 0.38326
 408.96;18680.464;  491.806;44465.898; 0.38340
 409.55;18896.524;  504.476;44970.283; 0.38340
 410.14;19068.076;  481.626;45459.452; 0.38380
 410.73;19260.433;  490.299;45905.805; 0.38374
 411.32;19518.381;  492.855;46441.730; 0.38294
 411.91;19896.582;  505.687;47060.216; 0.38036
 412.50;20113.360;  480.732;47624.639; 0.38045
 413.09;20376.498;  484.505;48110.411; 0.37916
 413.68;20499.032;  482.467;48573.257; 0.38067
 414.27;20746.360;  487.472;48936.919; 0.37867
 414.86;20828.759;  462.470;49236.309; 0.37928
 415.45;20913.223;  452.555;49687.411; 0.38135
 416.04;21010.241;  462.743;50083.734; 0.38291
 416.63;21244.784;  468.551;50542.275; 0.38204
 417.22;21421.200;  461.867;50754.683; 0.38013
 417.81;21624.008;  462.159;51068.477; 0.37865
 418.40;21765.216;  476.694;51393.675; 0.37872
 418.99;21861.749;  477.832;51737.830; 0.37969
 419.58;21873.010;  462.218;51969.382; 0.38123
 420.17;21963.032;  452.952;52248.392; 0.38165
 420.76;22123.156;  458.593;52499.836; 0.38060
 421.35;22250.755;  472.988;53005.769; 0.38242
 421.94;22293.491;  474.287;53203.501; 0.38321
 422.53;22315.973;  469.601;53402.299; 0.38434
 423.12;22384.186;  471.552;53493.823; 0.38376
 423.71;22368.248;  463.366;53670.857; 0.38543
 424.30;22276.926;  471.573;53819.883; 0.38856
 424.89;22257.724;  477.611;53888.037; 0.38957
 425.48;22295.078;  477.854;53974.356; 0.38953
 426.07;22344.790;  465.438;53940.695; 0.38812
 426.66;22314.624;  460.097;54040.507; 0.38946
 427.25;22308.573;  453.014;53995.096; 0.38913
 427.84;22272.543;  450.549;53912.043; 0.38915
 428.43;22126.280;  452.848;53711.442; 0.39046
 429.02;21960.728;  457.772;53797.552; 0.39455
 429.61;21928.310;  448.720;53826.107; 0.39533
 430.20;21806.661;  425.820;53758.443; 0.39697
 430.79;21672.129;  437.001;53531.580; 0.39800
 431.38;21468.107;  442.471;53315.543; 0.40049
 431.97;21339.687;  451.391;53001.434; 0.40067
 432.55;21207.597;  445.807;52690.011; 0.40077
 433.14;21119.665;  441.412;52704.411; 0.40268
 433.73;21050.006;  432.971;52655.054; 0.40363
 434.32;20943.911;  424.624;52606.263; 0.40536
 434.91;20755.386;  423.161;52233.737; 0.40623
 435.50;20478.524;  418.064;51971.869; 0.40992
 436.09;20327.646;  418.432;51687.970; 0.41081
 436.68;20063.999;  422.559;51624.303; 0.41611
 437.27;20026.172;  439.214;51661.122; 0.41749
 437.86;19818.300;  433.576;51508.561; 0.42075
 438.45;19738.061;  436.794;51330.326; 0.42108
 439.04;19467.705;  419.148;51043.637; 0.42450
 439.62;19266.396;  412.025;51000.963; 0.42864
 440.21;19114.497;  413.441;50885.373; 0.43118
 440.80;18968.660;  430.263;51024.538; 0.43603
 441.39;18860.937;  449.560;51081.161; 0.43934
 441.98;18649.419;  447.874;51020.625; 0.44381
 442.57;18468.052;  436.530;50797.219; 0.44606
 443.16;18291.101;  425.660;50702.578; 0.44935
 443.75;18195.456;  431.481;50788.909; 0.45252
 444.33;18203.598;  435.018;50969.383; 0.45393
 444.92;18112.562;  440.355;50892.685; 0.45559
 445.51;17989.899;  417.614;50850.986; 0.45789
 446.10;17756.823;  410.612;51056.876; 0.46534
 446.69;17692.841;  404.712;51275.545; 0.46872
 447.28;17654.365;  420.929;51457.726; 0.47151
 447.87;17606.363;  412.657;51329.383; 0.47149
 448.45;17455.741;  413.036;51412.748; 0.47603
 449.04;17244.649;  390.874;51445.980; 0.48134
 449.63;17139.637;  386.972;51646.289; 0.48569
 450.22;17029.154;  381.501;51835.467; 0.49007
 450.81;16942.239;  386.090;52100.884; 0.49466
 451.40;16886.831;  391.666;52058.120; 0.49585
 451.98;16832.469;  398.229;52052.065; 0.49735
 452.57;16737.878;  403.856;52211.469; 0.50130
 453.16;16511.764;  401.626;52273.023; 0.50783
 453.75;16389.790;  391.994;52359.708; 0.51167
 454.34;16268.782;  388.814;52215.013; 0.51370
 454.93;16265.150;  395.232;52494.699; 0.51626
 455.51;16074.681;  391.805;52615.216; 0.52244
 456.10;15890.258;  402.670;52907.445; 0.53022
 456.69;15704.199;  396.116;53041.712; 0.53644
 457.28;15630.358;  403.304;53288.203; 0.54072
 457.87;15587.498;  395.902;53216.666; 0.54120
 458.45;15517.891;  396.108;53304.691; 0.54392
 459.04;15419.272;  388.965;53401.373; 0.54741
 459.63;15330.394;  395.666;53676.141; 0.55237
 460.22;15262.393;  396.420;53639.128; 0.55407
 460.80;15153.402;  400.600;53692.823; 0.55779
 461.39;15141.800;  392.483;53895.895; 0.55961
 461.98;15063.717;  393.792;54364.115; 0.56573
 462.57;15057.580;  398.874;54782.941; 0.56938
 463.16;15023.266;  397.668;55197.607; 0.57367
 463.74;15073.537;  387.726;55673.212; 0.57571
 464.33;15125.426;  376.102;56213.777; 0.57816
 464.92;15063.038;  370.427;56547.398; 0.58246
 465.51;14983.025;  357.831;56911.710; 0.58736
 466.09;14957.237;  358.204;57352.888; 0.59151
 466.68;15081.814;  361.518;57898.436; 0.59203
 467.27;15165.685;  372.331;58292.638; 0.59276
 467.86;15153.449;  368.243;58560.733; 0.59504
 468.44;15114.977;  363.094;58919.922; 0.59873
 469.03;15100.209;  361.882;59322.152; 0.60211
 469.62;15185.784;  367.807;59788.037; 0.60315
 470.20;15204.436;  365.300;60231.337; 0.60577
 470.79;15228.294;  374.762;60677.863; 0.60851
 471.38;15154.601;  358.816;61146.166; 0.61368
 471.97;15144.505;  359.020;61564.389; 0.61695
 472.55;15157.469;  350.111;61933.679; 0.61899
 473.14;15147.732;  362.234;62406.602; 0.62287
 473.73;15073.359;  355.473;62971.535; 0.62884
 474.31;15026.298;  347.428;63489.444; 0.63363
 474.90;15116.117;  350.797;63899.238; 0.63386
 475.49;15192.119;  352.737;64160.914; 0.63346
 476.07;15177.512;  357.870;64473.326; 0.63613
 476.66;15215.045;  347.892;64752.829; 0.63669
 477.25;15258.244;  340.581;65000.332; 0.63693
 477.84;15229.777;  352.761;65155.193; 0.63908
 478.42;15176.872;  344.733;65155.945; 0.64045
 479.01;15107.595;  344.681;65156.001; 0.64248
 479.60;15236.445;  330.210;65156.511; 0.63838
 480.18;15171.211;  334.265;65158.257; 0.64039
 480.77;15107.449;  342.135;65159.480; 0.64245
 481.35;15046.341;  347.900;65159.373; 0.64438
 481.94;14958.820;  344.738;65159.188; 0.64690
 482.53;14958.897;  335.059;65159.923; 0.64668
 483.11;14877.692;  332.000;65160.709; 0.64903
 483.70;14908.381;  318.067;65161.719; 0.64780
 484.29;14901.005;  316.585;65163.324; 0.64800
 484.87;14810.570;  306.461;65164.542; 0.65047
 485.46;14735.297;  315.710;65164.272; 0.65295
 486.05;14649.596;  319.958;65162.920; 0.65563
 486.63;14615.592;  321.237;65162.258; 0.65669
 487.22;14532.251;  317.302;65162.909; 0.65914
 487.81;14443.061;  323.288;65164.368; 0.66202
 488.39;14304.502;  331.856;65164.474; 0.66651
 488.98;14205.086;  337.207;65163.733; 0.66974
 489.56;14044.826;  317.228;65164.794; 0.67430
 490.15;13955.754;  310.772;65166.371; 0.67697
 490.74;13845.517;  302.771;65167.454; 0.68030
 491.32;13744.860;  305.937;65168.774; 0.68363
 491.91;13580.495;  316.111;64974.057; 0.68793
 492.49;13392.747;  317.823;64712.314; 0.69241
 493.08;13204.557;  332.939;64167.133; 0.69542
 493.67;13075.307;  325.500;63724.219; 0.69658
 494.25;12816.610;  343.920;63105.848; 0.70174
 494.84;12586.189;  335.724;62474.087; 0.70521
 495.42;12377.194;  338.386;61959.759; 0.70915
 496.01;12259.423;  319.873;61399.648; 0.70891
 496.59;12116.228;  310.443;60754.114; 0.70926
 497.18;12014.263;  311.106;60078.479; 0.70816
 497.77;11912.101;  311.733;59331.632; 0.70653
 498.35;11847.608;  326.966;58841.796; 0.70579
 498.94;11659.024;  324.499;58030.218; 0.70682
 499.52;11558.665;  324.914;57567.186; 0.70719
 500.11;11388.429;  311.275;56906.600; 0.70835
 500.69;11368.405;  304.601;56449.246; 0.70540
 501.28;11272.536;  315.149;55764.708; 0.70419
 501.86;11200.969;  317.653;55155.772; 0.70232
 502.45;11032.920;  338.264;54632.693; 0.70559
 503.03;10897.878;  328.939;54106.656; 0.70657
 503.62;10759.628;  339.385;53665.090; 0.70906
 504.20;10746.845;  326.215;53123.968; 0.70472
 504.79;10663.036;  326.766;52666.148; 0.70446
 505.37;10692.079;  326.582;52358.543; 0.70068
 505.96;10659.627;  332.269;51859.105; 0.69804
 506.55;10745.371;  327.706;51491.158; 0.69119
 507.13;10821.976;  315.837;51254.709; 0.68561
 507.72;10904.674;  312.954;51138.387; 0.68111
 508.30;11005.237;  319.265;50944.634; 0.67555
 508.89;11090.087;  316.460;50626.145; 0.66929
 509.47;11141.339;  308.593;50383.056; 0.66488
 510.05;11229.154;  311.037;50305.214; 0.66077
 510.64;11377.139;  312.992;50205.541; 0.65412
 511.22;11561.077;  326.961;50242.492; 0.64770
 511.81;11703.768;  323.186;50282.527; 0.64245
 512.39;11932.184;  329.747;50266.280; 0.63387
 512.98;12095.358;  310.647;50213.110; 0.62680
 513.56;12350.220;  306.947;50200.284; 0.61730
 514.15;12475.791;  297.484;50225.841; 0.61276
 514.73;12671.954;  293.306;50310.339; 0.60644
 515.32;12889.326;  298.909;50412.714; 0.59992
 515.90;13153.088;  306.909;50529.464; 0.59212
 516.49;13433.904;  321.223;50576.262; 0.58349
 517.07;13621.456;  323.415;50501.804; 0.57673
 517.66;13708.279;  325.663;50468.951; 0.57367
 518.24;13894.103;  330.491;50581.443; 0.56877
 518.82;14022.441;  322.791;50433.118; 0.56322
 519.41;14300.245;  321.449;50483.238; 0.55490
 519.99;14630.306;  304.901;50520.942; 0.54474
 520.58;14977.885;  313.039;50964.514; 0.53831
 521.16;15343.881;  316.114;51139.212; 0.52917
 521.75;15605.148;  315.579;51354.849; 0.52351
 522.33;15927.151;  314.722;51552.832; 0.51612
 522.91;16289.462;  303.280;51724.449; 0.50740
 523.50;16570.108;  304.661;51708.091; 0.49973
 524.08;16964.546;  292.957;51816.521; 0.49003
 524.67;17260.860;  296.699;52029.160; 0.48423
 525.25;17533.008;  294.898;52244.306; 0.47909
 525.83;17736.381;  300.195;52281.679; 0.47440
 526.42;17988.362;  299.604;52255.985; 0.46794
 527.00;18290.364;  297.414;52315.968; 0.46106
 527.59;18678.132;  293.742;52194.390; 0.45072
 528.17;18953.208;  296.702;52169.461; 0.44411
 528.75;19283.198;  314.407;52237.781; 0.43732
 529.34;19497.287;  317.963;52410.206; 0.43394
 529.92;19803.776;  322.096;52599.701; 0.42869
 530.50;20001.170;  308.099;52577.086; 0.42393
 531.09;20186.674;  310.277;52580.588; 0.41992
 531.67;20427.481;  319.699;52493.409; 0.41409
 532.25;20636.034;  331.224;52474.618; 0.40960
 532.84;20894.846;  319.265;52286.406; 0.40238
 533.42;21096.233;  303.579;52069.121; 0.39613
 534.00;21331.722;  296.379;51800.283; 0.38889
 534.59;21520.792;  306.923;51692.027; 0.38422
 535.17;21641.068;  307.396;51484.292; 0.38001
 535.75;21804.146;  311.833;51399.345; 0.37603
 536.34;21875.110;  327.170;51106.314; 0.37228
 536.92;21991.804;  323.362;50970.357; 0.36873
 537.50;22065.821;  320.767;50555.361; 0.36364
 538.09;22212.072;  304.234;50224.272; 0.35768
 538.67;22332.818;  307.957;49849.711; 0.35206
 539.25;22442.004;  292.004;49517.578; 0.34682
 539.84;22525.211;  298.382;49195.084; 0.34240
 540.42;22558.237;  287.620;48747.408; 0.33765
 541.00;22690.438;  304.712;48328.615; 0.33149
 541.59;22782.293;  293.453;47996.146; 0.32658
 542.17;22947.802;  303.713;47681.974; 0.32062
 542.75;22973.926;  301.687;47449.085; 0.31796
 543.33;23092.599;  321.928;47035.436; 0.31207
 543.92;23172.287;  322.791;46647.473; 0.30694
 544.50;23255.154;  319.637;46212.001; 0.30123
 545.08;23339.233;  303.653;45900.067; 0.29653
 545.67;23320.695;  304.594;45544.519; 0.29349
 546.25;23415.774;  306.855;45243.598; 0.28882
 546.83;23364.403;  305.919;44881.223; 0.28626
 547.41;23446.810;  307.185;44485.963; 0.28086
 548.00;23510.261;  304.048;44073.416; 0.27557
 548.58;23630.533;  293.554;43651.340; 0.26902
 549.16;23721.499;  273.252;43462.973; 0.26527
 549.74;23842.866;  276.221;43125.006; 0.25964
 550.33;23897.230;  287.338;42789.017; 0.25531
 550.91;23913.019;  287.502;42328.145; 0.25029
 551.49;23922.253;  275.114;42084.067; 0.24749
 552.07;24017.864;  281.527;41894.675; 0.24382
 552.66;24131.786;  296.715;41696.915; 0.23979
 553.24;24138.676;  301.874;41407.799; 0.23666
 553.82;24220.281;  287.046;41262.389; 0.23352
 554.40;24329.210;  287.502;41018.645; 0.22896
 554.98;24555.412;  286.839;40927.197; 0.22391
 555.57;24699.977;  295.511;40724.442; 0.21922
 556.15;24828.064;  295.794;40729.857; 0.21701
 556.73;24885.075;  289.872;40584.856; 0.21440
 557.31;25064.664;  280.087;40487.094; 0.21012
 557.89;25274.810;  267.680;40402.230; 0.20545
 558.48;25513.395;  270.725;40389.487; 0.20121
 559.06;25637.884;  269.279;40492.969; 0.20019
 559.64;25789.937;  288.172;40421.363; 0.19693
 560.22;25890.394;  308.276;40298.501; 0.19402
 560.80;26120.670;  311.749;40155.433; 0.18859
 561.39;26211.063;  300.174;40123.139; 0.18665
 561.97;26413.401;  304.256;40118.465; 0.18325
 562.55;26612.529;  305.864;40159.584; 0.18040
 563.13;26831.762;  307.652;40244.814; 0.17774
 563.71;27027.934;  295.320;40343.674; 0.17554
 564.29;27171.415;  296.315;40286.513; 0.17260
 564.88;27439.948;  280.495;40218.374; 0.16746
 565.46;27638.365;  277.260;40267.767; 0.16482
 566.04;27859.841;  269.464;40338.574; 0.16205
 566.62;28008.377;  292.162;40520.457; 0.16180
 567.20;28200.597;  292.265;40647.678; 0.16017
 567.78;28430.336;  300.170;40851.754; 0.15884
 568.36;28784.336;  300.837;41002.754; 0.15502
 568.94;29033.114;  296.460;41004.189; 0.15124
 569.53;29216.455;  295.816;41099.192; 0.14949
 570.11;29413.424;  283.902;41113.488; 0.14664
 570.69;29646.524;  278.869;41248.245; 0.14459
 571.27;29779.541;  279.854;41227.262; 0.14241
 571.85;29815.169;  279.584;41295.220; 0.14260
 572.43;29980.518;  299.078;41479.213; 0.14220
 573.01;30214.514;  288.199;41566.526; 0.13967
 573.59;30498.314;  284.931;41522.011; 0.13509
 574.17;30638.255;  270.419;41423.650; 0.13199
 574.76;30841.347;  278.826;41529.098; 0.13024
 575.34;31128.245;  274.920;41725.997; 0.12823
 575.92;31342.440;  271.771;41808.186; 0.12608
 576.50;31523.753;  265.398;41828.507; 0.12374
 577.08;31471.963;  261.206;41866.048; 0.12484
 577.66;31645.626;  250.776;41875.013; 0.12249
 578.24;31775.453;  252.747;41879.155; 0.12075
 578.82;31951.873;  257.942;41897.583; 0.11853
 579.40;31990.834;  266.978;41903.210; 0.11809
 579.98;32002.252;  273.567;41841.961; 0.11731
 580.56;32157.273;  281.852;41853.319; 0.11534
 581.14;32481.453;  291.659;41917.834; 0.11165
 581.72;32705.534;  280.280;42082.244; 0.11031
 582.30;32861.772;  273.151;42074.467; 0.10812
 582.88;32815.257;  274.650;42152.288; 0.10956
 583.46;33001.777;  282.363;42189.821; 0.10749
 584.04;33224.397;  282.956;42171.457; 0.10435
 584.62;33447.751;  265.125;42197.830; 0.10164
 585.21;33583.026;  267.265;42241.428; 0.10033
 585.79;33663.619;  273.754;42392.009; 0.10086
 586.37;33752.251;  277.118;42415.309; 0.09995
 586.95;34069.096;  275.522;42455.787; 0.09628
 587.53;34169.484;  269.979;42469.819; 0.09512
 588.11;34460.580;  278.442;42585.262; 0.09261
 588.69;34327.500;  282.733;42557.865; 0.09403
 589.27;34475.441;  283.424;42506.477; 0.09162
 589.85;34474.575;  276.026;42443.602; 0.09097
 590.43;34572.916;  271.715;42599.939; 0.09132
 591.01;34794.488;  278.076;42722.853; 0.08980
 591.59;34999.911;  288.299;42936.945; 0.08943
 592.16;35235.290;  287.924;42891.657; 0.08603
 592.74;35266.024;  291.617;42886.045; 0.08560
 593.32;35317.615;  293.193;42739.948; 0.08347
 593.90;35380.308;  297.895;42708.966; 0.08239
 594.48;35456.706;  288.777;42603.037; 0.08034
 595.06;35587.129;  285.245;42684.475; 0.07956
 595.64;35680.556;  272.769;42709.242; 0.07864
 596.22;35797.455;  276.890;42757.472; 0.07771
 596.80;35773.945;  268.138;42505.619; 0.07540
 597.38;35761.225;  264.245;42457.558; 0.07505
 597.96;35648.240;  262.869;42299.911; 0.07481
 598.54;35663.399;  268.057;42320.734; 0.07485
 599.12;35797.747;  272.769;42174.074; 0.07169
 599.70;35874.625;  272.156;42133.628; 0.07033
 600.28;35755.870;  269.178;41999.881; 0.07039
 600.86;35560.570;  273.568;41898.236; 0.07174
 601.44;35455.986;  279.130;41816.989; 0.07219
 602.02;35559.981;  273.135;41601.984; 0.06864
 602.59;35651.505;  269.019;41487.164; 0.06630
 603.17;35603.985;  254.435;41427.991; 0.06623
 603.75;35599.677;  264.600;41407.036; 0.06608
 604.33;35503.007;  268.544;41269.041; 0.06582
 604.91;35467.943;  272.574;41056.648; 0.06401
 605.49;35394.037;  271.546;40985.067; 0.06415
 606.07;35376.873;  254.900;40828.877; 0.06267
 606.65;35337.032;  260.422;40696.701; 0.06175
 607.23;35273.121;  264.441;40448.820; 0.05988
 607.80;35205.671;  277.156;40221.379; 0.05827
 608.38;35153.451;  277.256;40025.464; 0.05679
 608.96;34920.665;  285.786;39921.000; 0.05857
 609.54;34660.700;  288.246;39743.725; 0.05990
 610.12;34528.016;  283.928;39528.375; 0.05919
 610.70;34452.274;  273.259;39095.265; 0.05532
 611.28;34391.741;  259.195;38813.390; 0.05290
 611.85;34049.239;  265.841;38433.913; 0.05300
 612.43;33801.605;  260.695;38304.961; 0.05471
 613.01;33617.145;  263.202;38019.161; 0.05384
 613.59;33481.769;  249.299;37795.112; 0.05300
 614.17;33288.730;  240.914;37668.085; 0.05404
 614.75;32994.514;  222.778;37521.205; 0.05619
 615.32;32817.095;  209.277;37291.775; 0.05585
 615.90;32625.548;  219.080;36866.572; 0.05341
 616.48;32518.291;  232.952;36658.988; 0.05241
 617.06;32302.797;  255.157;36308.488; 0.05115
 617.64;32157.450;  246.140;36072.812; 0.05026
 618.22;31890.153;  241.049;35666.522; 0.04895
 618.79;31746.915;  228.178;35515.632; 0.04905
 619.37;31399.965;  227.104;35180.352; 0.04971
 619.95;31071.910;  231.387;34894.600; 0.05075
 620.53;30738.478;  218.869;34491.494; 0.05037
 621.11;30534.595;  206.529;34156.975; 0.04900
 621.68;30350.650;  201.116;33920.700; 0.04860
 622.26;30275.744;  202.843;33803.106; 0.04817
 622.84;30102.016;  212.594;33643.042; 0.04862
 623.42;30028.043;  214.208;33340.072; 0.04575
 623.99;29772.795;  232.130;33128.823; 0.04673
 624.57;29649.843;  239.695;32874.211; 0.04518
 625.15;29365.574;  249.244;32723.283; 0.04740
 625.73;29113.070;  235.066;32483.448; 0.04794
 626.30;28868.752;  228.444;32290.122; 0.04901
 626.88;28835.903;  228.031;32032.596; 0.04600
 627.46;28774.076;  230.061;31766.787; 0.04330
 628.04;28615.159;  242.419;31549.234; 0.04274
 628.61;28315.364;  241.899;31249.103; 0.04317
 629.19;28131.028;  244.829;31015.066; 0.04274
 629.77;27967.725;  231.831;30736.758; 0.04133
 630.35;27801.143;  234.217;30562.869; 0.04146
 630.92;27600.184;  232.092;30375.921; 0.04195
 631.50;27391.391;  220.757;30199.145; 0.04271
 632.08;27231.253;  206.521;29949.680; 0.04163
 632.66;27014.709;  196.801;29744.460; 0.04210
 633.23;26823.338;  216.776;29426.430; 0.04054
 633.81;26535.935;  225.566;29138.020; 0.04096
 634.39;26362.022;  220.298;28844.754; 0.03940
 634.96;26066.397;  221.956;28624.791; 0.04099
 635.54;26080.810;  216.680;28606.896; 0.04047
 636.12;25803.526;  214.735;28334.976; 0.04097
 636.69;25721.818;  204.526;28222.591; 0.04060
 637.27;25465.747;  199.403;27913.834; 0.04016
 637.85;25314.315;  217.219;27696.062; 0.03937
 638.42;25151.908;  206.286;27392.989; 0.03736
 639.00;25000.358;  223.367;27259.457; 0.03790
 639.58;24777.832;  209.789;26981.612; 0.03731
 640.15;24560.706;  222.891;26790.445; 0.03807
 640.73;24220.821;  204.119;26492.226; 0.03925
 641.31;24161.937;  216.013;26471.006; 0.03998
 641.88;24002.386;  210.908;26285.787; 0.03980
 642.46;24045.168;  226.803;26132.901; 0.03649
 643.04;23922.283;  214.697;25934.349; 0.03538
 643.61;23896.399;  223.925;25817.463; 0.03389
 644.19;23666.847;  209.153;25659.577; 0.03541
 644.77;23502.963;  224.048;25468.358; 0.03520
 645.34;23351.078;  211.943;25293.805; 0.03501
 645.92;23222.527;  214.504;25070.586; 0.03355
 646.49;23089.643;  218.399;24938.033; 0.03375
 647.07;22908.758;  220.293;24745.814; 0.03381
 647.65;22748.873;  224.188;24564.928; 0.03368
 648.22;22629.655;  218.082;24391.042; 0.03286
 648.80;22598.771;  227.310;24368.156; 0.03306
 649.37;22600.220;  227.872;24339.937; 0.03252
 649.95;22474.002;  227.433;24242.051; 0.03321
 650.53;22336.784;  209.328;24121.165; 0.03368
 651.10;22177.233;  214.222;24054.279; 0.03562
 651.68;22154.348;  211.450;24020.060; 0.03544
 652.25;22029.130;  221.012;23899.174; 0.03573
 652.83;22036.246;  211.573;23700.955; 0.03192
 653.41;21885.028;  208.468;23524.069; 0.03166
 653.98;21828.143;  212.362;23340.850; 0.02938
 654.56;21655.259;  211.590;23307.630; 0.03224
 655.13;21591.374;  208.818;23285.744; 0.03312
 655.71;21576.156;  207.379;23284.525; 0.03340
 656.28;21602.605;  194.941;23185.639; 0.03098
 656.86;21559.054;  188.169;22962.753; 0.02763
 657.43;21431.503;  190.397;22872.868; 0.02851
 658.01;21337.618;  212.958;22793.315; 0.02894
 658.58;21395.400;  207.519;22876.096; 0.02934
 659.16;21367.182;  211.747;22798.876; 0.02844
 659.74;21291.631;  196.309;22777.324; 0.02956
 660.31;21203.080;  204.203;22714.438; 0.03018
 660.89;21065.528;  198.098;22687.885; 0.03252
 661.46;20989.644;  206.659;22545.999; 0.03136
 662.04;20879.093;  208.554;22516.780; 0.03311
 662.61;20964.208;  207.448;22500.894; 0.03102
 663.19;21062.657;  206.676;22626.342; 0.03140
 663.76;21096.439;  209.571;22600.456; 0.03020
 664.34;21147.221;  211.132;22526.237; 0.02770
 664.91;21103.337;  214.027;22413.684; 0.02642
 665.49;21164.119;  216.922;22441.798; 0.02571
 666.06;21085.901;  213.150;22513.246; 0.02873
 666.64;21105.016;  212.044;22555.693; 0.02915
 667.21;21079.132;  216.606;22500.140; 0.02862
 667.79;21087.914;  204.167;22400.588; 0.02647
 668.36;21093.696;  201.395;22402.702; 0.02639
 668.93;21063.145;  202.290;22421.149; 0.02739
 669.51;21096.927;  198.184;22426.263; 0.02678
 670.08;21074.709;  192.412;22387.044; 0.02647
 670.66;21113.824;  189.307;22273.825; 0.02343
 671.23;21165.273;  213.201;22361.606; 0.02412
 671.81;21238.722;  219.763;22403.720; 0.02343
 672.38;21321.171;  224.324;22501.167; 0.02364
 672.96;21299.619;  213.552;22510.281; 0.02425
 673.53;21219.068;  213.113;22482.395; 0.02536
 674.10;21200.184;  213.008;22524.843; 0.02658
 674.68;21235.632;  228.236;22505.290; 0.02549
 675.25;21233.748;  221.131;22417.404; 0.02380
 675.83;21212.863;  215.692;22370.185; 0.02330
 676.40;21181.312;  203.253;22300.299; 0.02257
 676.98;21184.427;  209.148;22323.413; 0.02296
 677.55;21121.543;  210.043;22281.527; 0.02345
 678.12;21025.992;  223.937;22260.975; 0.02505
 678.70;21065.774;  221.832;22236.089; 0.02372
 679.27;21052.889;  229.060;22163.870; 0.02257
 679.85;21081.005;  216.621;22124.984; 0.02120
 680.42;20967.453;  216.516;22133.431; 0.02374
 680.99;20884.235;  192.744;22099.212; 0.02478
 681.57;20869.018;  198.305;22028.659; 0.02371
 682.14;20847.466;  205.866;21848.773; 0.02057
 682.71;20882.915;  210.761;21795.554; 0.01876
 683.29;20704.031;  200.656;21706.668; 0.02073
 683.86;20531.146;  185.884;21546.116; 0.02114
 684.43;20309.595;  198.112;21362.230; 0.02216
 685.01;20243.044;  197.006;21197.011; 0.02019
 685.58;20234.826;  206.234;21272.458; 0.02194
 686.16;20287.608;  206.462;21269.239; 0.02073
 686.73;20343.057;  215.023;21397.686; 0.02218
 687.30;20367.505;  207.585;21388.467; 0.02146
 687.88;20328.954;  217.479;21321.914; 0.02093
 688.45;20142.403;  210.707;21118.362; 0.02076
 689.02;20043.518;  213.602;21022.142; 0.02092
 689.60;20005.300;  190.497;20889.257; 0.01895
 690.17;20012.082;  199.391;20926.704; 0.01960
 690.74;19855.531;  189.619;20805.485; 0.02049
 691.31;19738.313;  204.181;20824.932; 0.02351
 691.89;19727.762;  191.742;20754.713; 0.02225
 692.46;19706.878;  212.637;20700.494; 0.02159
 693.03;19684.993;  229.198;20611.941; 0.02021
 693.61;19573.442;  234.759;20426.722; 0.01875
 694.18;19566.224;  237.320;20424.503; 0.01887
 694.75;19429.673;  206.882;20414.950; 0.02171
 695.32;19404.455;  208.110;20458.064; 0.02321
 695.90;19339.570;  203.004;20312.512; 0.02154
 696.47;19298.352;  203.899;20210.626; 0.02027
 697.04;19158.134;  214.460;20060.073; 0.02020
 697.62;19131.917;  213.355;20039.187; 0.02034
 698.19;19161.365;  229.250;19951.301; 0.01775
 698.76;19187.147;  211.144;19960.082; 0.01734
 699.33;19222.596;  210.706;19883.196; 0.01483
 699.91;19102.712;  196.600;19795.977; 0.01564
 700.48;19008.827;  206.162;19674.091; 0.01510
 701.05;18816.276;  208.056;19645.538; 0.01894
 701.62;18727.058;  232.951;19536.652; 0.01861
 702.20;18647.507;  235.179;19463.767; 0.01884
 702.77;18535.622;  232.073;19314.881; 0.01811
 703.34;18459.404;  217.301;19303.995; 0.01966
 703.91;18371.186;  214.196;19161.775; 0.01851
 704.48;18343.302;  220.091;19054.223; 0.01671
 705.06;18327.751;  212.652;18964.004; 0.01499
 705.63;18277.866;  221.213;18940.118; 0.01564
 706.20;18240.315;  214.441;18934.565; 0.01641
 706.77;18193.430;  221.336;18864.679; 0.01593
 707.34;18156.212;  215.564;18821.793; 0.01582
 707.92;18061.994;  205.792;18710.907; 0.01550
 708.49;17917.777;  193.353;18575.022; 0.01581
 709.06;17905.225;  193.248;18466.136; 0.01354
 709.63;17878.341;  194.476;18431.916; 0.01339
 710.20;17867.123;  191.037;18446.697; 0.01401
 710.77;17771.238;  187.932;18338.145; 0.01378
 711.35;17755.354;  185.826;18305.592; 0.01339
 711.92;17825.802;  205.721;18271.706; 0.01085
 712.49;17891.251;  207.616;18372.487; 0.01166
 713.06;17940.367;  215.844;18405.934; 0.01126
 713.63;17920.482;  209.405;18498.382; 0.01394
 714.20;17949.931;  212.300;18556.829; 0.01461
 714.78;17931.046;  209.528;18487.277; 0.01342
 715.35;17845.162;  205.756;18407.724; 0.01363
 715.92;17738.944;  207.317;18351.838; 0.01492
 716.49;17688.393;  222.545;18343.285; 0.01599
 717.06;17687.175;  226.106;18273.400; 0.01434
 717.63;17668.624;  217.334;18198.847; 0.01300
 718.20;17619.739;  210.895;18175.294; 0.01364
 718.77;17635.521;  224.790;18170.075; 0.01313
 719.35;17628.970;  226.351;18153.189; 0.01289
 719.92;17508.419;  211.913;18038.303; 0.01311
 720.49;17455.201;  197.474;17879.084; 0.01054
 721.06;17349.316;  177.369;17774.532; 0.01062
 721.63;17396.765;  190.930;17799.979; 0.01006
 722.20;17359.547;  195.825;17861.426; 0.01252
 722.77;17435.329;  203.386;17825.540; 0.00972
 723.34;17314.778;  196.947;17821.321; 0.01266
 723.91;17215.227;  205.509;17813.102; 0.01500
 724.48;17060.342;  222.070;17777.883; 0.01812
 725.05;17123.124;  212.964;17617.997; 0.01253
 725.62;17094.240;  195.192;17490.778; 0.01007
 726.20;17170.022;  186.754;17461.892; 0.00740
 726.77;17052.804;  192.982;17446.339; 0.01002
 727.34;17065.586;  199.210;17412.787; 0.00885
 727.91;17041.035;  209.104;17361.567; 0.00819
 728.48;17110.817;  214.999;17354.015; 0.00621
 729.05;17097.932;  215.560;17353.795; 0.00653
 729.62;17049.381;  192.788;17320.910; 0.00694
 730.19;17013.163;  185.683;17297.024; 0.00726
 730.76;17003.612;  188.578;17324.138; 0.00820
 731.33;16902.061;  211.472;17306.252; 0.01039
 731.90;16852.843;  215.034;17274.033; 0.01086
 732.47;16759.292;  206.261;17242.147; 0.01249
 733.04;16750.407;  191.156;17245.594; 0.01280
 733.61;16720.522;  168.051;17256.042; 0.01383
 734.18;16731.305;  173.945;17191.156; 0.01190
 734.75;16711.420;  184.507;17077.270; 0.00951
 735.32;16652.535;  211.401;16955.384; 0.00793
 735.89;16604.651;  203.963;16851.831; 0.00650
 736.46;16499.100;  212.191;16734.945; 0.00624
 737.03;16449.215;  203.085;16674.393; 0.00598
 737.60;16371.331;  203.647;16580.840; 0.00559
 738.17;16322.779;  173.208;16558.621; 0.00630
 738.74;16210.228;  184.103;16523.735; 0.00841
 739.31;16103.677;  185.331;16430.849; 0.00884
 739.88;15950.792;  195.225;16300.630; 0.00954
 740.45;15867.241;  176.120;16234.411; 0.01005
 741.02;15818.357;  174.348;16293.858; 0.01300
 741.59;15909.472;  171.909;16337.305; 0.01165
 742.15;15956.254;  177.804;16325.753; 0.01005
 742.72;16019.036;  185.365;16376.867; 0.00971
 743.29;15993.818;  187.593;16351.648; 0.00972
 743.86;16040.934;  195.154;16298.095; 0.00699
 744.43;16006.049;  197.049;16220.543; 0.00585
 745.00;16070.831;  201.277;16240.323; 0.00461
 745.57;16054.947;  209.172;16261.771; 0.00563
 746.14;15985.062;  201.733;16198.552; 0.00584
 746.71;15899.511;  208.294;16179.666; 0.00769
 747.28;15863.960;  196.522;16170.446; 0.00841
 747.85;15900.408;  172.417;16124.227; 0.00614
 748.42;15840.524;  173.645;16103.675; 0.00723
 748.98;15800.306;  177.206;16075.455; 0.00758
 749.55;15785.421;  197.767;16011.569; 0.00626
 750.12;15854.204;  197.662;16015.683; 0.00446
 750.69;15808.652;  204.890;15955.131; 0.00406
 751.26;15767.434;  216.118;15910.245; 0.00397
 751.83;15696.217;  206.013;15821.026; 0.00349
 752.40;15607.332;  204.907;15769.807; 0.00456
 752.97;15566.447;  192.802;15780.587; 0.00601
 753.53;15533.563;  195.697;15773.035; 0.00673
 754.10;15566.345;  187.925;15706.815; 0.00395
 754.67;15498.794;  185.486;15666.263; 0.00472
 755.24;15375.909;  192.714;15616.044; 0.00681
 755.81;15309.025;  200.608;15583.491; 0.00782
 756.38;15297.473;  223.503;15510.272; 0.00609
 756.94;15312.589;  215.064;15482.386; 0.00486
 757.51;15202.704;  204.292;15502.833; 0.00860
 758.08;15138.486;  196.520;15545.281; 0.01167
 758.65;15138.935;  213.748;15443.728; 0.00878
 759.22;15128.051;  220.643;15351.176; 0.00645
 759.79;15065.166;  205.538;15180.623; 0.00336
 760.35;14862.281;  191.432;15130.404; 0.00787
 760.92;14664.730;  201.994;14987.518; 0.00959
 761.49;14495.512;  208.555;14849.965; 0.01064
 762.06;14398.294;  211.783;14641.079; 0.00737
 762.63;14408.410;  201.011;14500.527; 0.00281
 763.19;14342.525;  203.239;14469.641; 0.00389
 763.76;14175.641;  215.133;14423.422; 0.00764
 764.33;13990.423;  219.695;14294.202; 0.00948
 764.90;13785.205;  218.589;14107.650; 0.01020
 765.46;13750.987;  197.817;13914.097; 0.00520
 766.03;13618.769;  196.045;13749.878; 0.00422
 766.60;13545.885;  197.940;13624.992; 0.00257
 767.17;13377.333;  205.501;13465.773; 0.00291
 767.73;13217.449;  207.063;13413.220; 0.00649
 768.30;13014.564;  206.624;13205.001; 0.00641
 768.87;12879.346;  215.185;13045.782; 0.00567
 769.44;12746.128;  213.413;12836.229; 0.00311
 770.00;12594.577;  215.975;12686.677; 0.00322
 770.57;12416.026;  216.536;12525.791; 0.00389
 771.14;12147.475;  213.430;12350.238; 0.00732
 771.71;11951.924;  198.325;12122.686; 0.00626
 772.27;11734.039;  206.220;11935.800; 0.00754
 772.84;11616.821;  209.448;11715.914; 0.00376
 773.41;11429.603;  213.676;11595.695; 0.00638
 773.97;11252.719;  205.904;11440.809; 0.00733
 774.54;11153.167;  213.798;11314.923; 0.00637
 775.11;11041.616;  232.360;11227.370; 0.00740
 775.67;10926.398;  228.588;11074.818; 0.00598
 776.24;10765.514;  222.482;10902.265; 0.00560
 776.81;10640.962;  220.377;10665.712; 0.00103
 777.38;10491.078;  208.272;10484.160;-0.00029
 777.94;10371.193;  214.166;10350.941;-0.00087
 778.51;10238.975;  199.728;10214.721;-0.00105
 779.08;10152.091;  210.622;10137.835;-0.00062
 779.64;10073.873;  201.517;10058.283;-0.00069
 780.21; 9976.988;  202.745; 9970.064;-0.00031
 780.78; 9827.771;  211.639; 9870.178; 0.00191
 781.34; 9674.553;  212.534; 9787.625; 0.00516
 781.91; 9594.668;  225.762; 9703.406; 0.00501
 782.47; 9552.117;  227.990; 9633.520; 0.00378
 783.04; 9524.899;  238.551; 9482.634;-0.00198
 783.61; 9477.681;  245.779; 9385.415;-0.00436
 784.17; 9361.130;  246.674; 9320.196;-0.00195
 784.74; 9287.245;  236.569; 9240.310;-0.00226
 785.31; 9213.361;  244.797; 9256.090; 0.00206
 785.87; 9244.476;  248.691; 9137.538;-0.00519
 786.44; 9194.258;  252.252; 9126.319;-0.00331
 787.00; 9124.707;  239.480; 9065.766;-0.00289
 787.57; 9022.489;  222.375; 9005.880;-0.00082
 788.14; 8972.938;  242.936; 8941.661;-0.00156
 788.70; 8911.053;  252.831; 8828.442;-0.00416
 789.27; 8846.835;  261.392; 8880.222; 0.00169
 789.83; 8762.951;  247.620; 8836.003; 0.00371
 790.40; 8752.066;  230.182; 8838.117; 0.00436
 790.96; 8720.515;  235.076; 8799.898; 0.00404
 791.53; 8687.631;  229.304; 8766.679; 0.00404
 792.10; 8670.079;  224.866; 8777.126; 0.00547
 792.66; 8707.528;  219.094; 8720.574; 0.00067
 793.23; 8725.310;  214.988; 8733.688; 0.00043
 793.79; 8728.426;  216.216; 8675.468;-0.00271
 794.36; 8644.874;  210.777; 8660.249; 0.00079
 794.92; 8614.323;  219.339; 8606.363;-0.00041
 795.49; 8517.772;  232.233; 8532.811; 0.00079
 796.05; 8522.554;  243.461; 8505.258;-0.00091
 796.62; 8508.669;  248.023; 8527.372; 0.00098
 797.19; 8536.785;  237.917; 8507.820;-0.00152
 797.75; 8514.234;  226.145; 8453.600;-0.00319
 798.32; 8506.682;  218.373; 8393.714;-0.00596
 798.88; 8431.798;  222.601; 8383.829;-0.00255
 799.45; 8498.913;  224.829; 8436.276;-0.00330
 800.01; 8550.362;  220.391; 8517.723;-0.00171
 800.58; 8791.811;  215.952; 8677.504;-0.00583
 801.14; 8958.260;  222.513; 8916.952;-0.00206
 801.71; 9270.375;  218.074; 9117.399;-0.00740
 802.27; 9438.157;  206.969; 9310.180;-0.00606
 802.84; 9716.606;  188.864; 9480.294;-0.01091
 803.40; 9907.388;  179.758; 9723.075;-0.00831
 803.96;10177.170;  198.986;10006.189;-0.00751
 804.53;10476.619;  210.548;10273.303;-0.00869
 805.09;10764.401;  208.442;10576.417;-0.00780
 805.66;11101.183;  200.670;10926.198;-0.00703
 806.22;11383.965;  172.898;11264.978;-0.00463
 806.79;11757.081;  185.793;11622.426;-0.00508
 807.35;12106.863;  182.354;11886.873;-0.00809
 807.92;12442.645;  214.582;12161.654;-0.01010
 808.48;12749.094;  221.810;12436.768;-0.01096
 809.05;13032.542;  217.705;12708.882;-0.01111
 809.61;13286.658;  213.933;13054.330;-0.00779
 810.17;13586.107;  218.827;13355.110;-0.00757
 810.74;13909.889;  231.055;13671.891;-0.00762
 811.30;14261.671;  226.617;13899.672;-0.01135
 811.87;14560.786;  214.511;14212.453;-0.01067
 812.43;14939.902;  214.406;14571.233;-0.01101
 812.99;15268.351;  216.967;14881.014;-0.01132
 813.56;15624.466;  221.862;15191.462;-0.01238
 814.12;15898.581;  221.090;15523.909;-0.01051
 814.69;16195.030;  216.318;15866.356;-0.00903
 815.25;16417.146;  210.213;16143.804;-0.00739
 815.81;16709.261;  200.774;16302.251;-0.01084
 816.38;17108.043;  196.335;16642.699;-0.01212
 816.94;17429.159;  193.897;16882.479;-0.01400
 817.51;17666.941;  192.791;17283.594;-0.00963
 818.07;17903.389;  201.019;17504.374;-0.00990
 818.63;18206.838;  202.247;17804.155;-0.00982
 819.20;18548.954;  201.808;18033.936;-0.01237
 819.76;18845.402;  209.370;18216.050;-0.01492
 820.32;19077.851;  216.598;18394.831;-0.01602
 820.89;19239.967;  218.159;18583.278;-0.01526
 821.45;19286.415;  193.387;18775.726;-0.01177
 822.01;19453.531;  176.615;18965.173;-0.01114
 822.58;19521.980;  180.843;19065.620;-0.01037
 823.14;19633.095;  194.404;19233.068;-0.00903
 823.70;19638.877;  202.299;19352.182;-0.00645
 824.27;19658.659;  193.194;19462.963;-0.00439
 824.83;19665.441;  215.421;19467.743;-0.00444
 825.39;19602.890;  215.649;19374.524;-0.00515
 825.95;19538.672;  221.211;19316.972;-0.00501
 826.52;19389.121;  191.105;19274.752;-0.00259
 827.08;19257.903;  189.000;19152.200;-0.00241
 827.64;19084.019;  175.895;18949.314;-0.00311
 828.21;18830.134;  175.123;18660.095;-0.00398
 828.77;18563.249;  181.351;18397.542;-0.00393
 829.33;18228.365;  183.579;18029.323;-0.00482
 829.89;17914.147;  181.807;17638.104;-0.00681
 830.46;17459.262;  185.701;17297.218;-0.00409
 831.02;17069.045;  190.596;16895.332;-0.00449
 831.58;16688.160;  201.157;16540.779;-0.00390
 832.15;16332.942;  185.052;16128.893;-0.00552
 832.71;15900.724;  188.280;15811.341;-0.00248
 833.27;15439.506;  178.841;15353.455;-0.00246
 833.83;14999.622;  169.736;14940.569;-0.00173
 834.39;14569.737;  164.297;14394.016;-0.00533
 834.96;14035.519;  162.192;13925.464;-0.00346
 835.52;13562.301;  187.086;13474.578;-0.00286
 836.08;13133.750;  188.981;13047.025;-0.00292
 836.64;12721.866;  194.876;12619.473;-0.00356
 837.21;12333.648;  198.770;12148.920;-0.00666
 837.77;11881.430;  198.332;11759.367;-0.00456
 838.33;11472.879;  206.893;11447.148;-0.00099
 838.89;11033.327;  203.121;11001.596;-0.00127
 839.45;10595.443;  205.349;10589.710;-0.00024
 840.02;10233.225;  209.910;10134.490;-0.00430
 840.58; 9849.674;  201.805; 9836.938;-0.00057
 841.14; 9478.789;  224.699; 9457.052;-0.00102
 841.70; 9119.238;  220.594; 9049.833;-0.00340
 842.26; 8707.020;  218.155; 8613.280;-0.00482
 842.82; 8326.469;  209.050; 8233.061;-0.00503
 843.39; 7879.918;  200.278; 7802.175;-0.00442
 843.95; 7544.700;  213.839; 7446.956;-0.00583
 844.51; 7212.482;  213.734; 7076.737;-0.00851
 845.07; 6945.931;  223.295; 6751.184;-0.01277
 845.63; 6631.713;  228.523; 6447.965;-0.01264
 846.19; 6355.161;  213.418; 6205.745;-0.01070
 846.75; 6077.610;  212.646; 6042.860;-0.00258
 847.32; 5894.059;  191.874; 5828.307;-0.00504
 847.88; 5696.841;  198.435; 5647.088;-0.00395
 848.44; 5500.956;  182.996; 5418.202;-0.00681
 849.00; 5323.405;  188.224; 5206.649;-0.00999
 849.56; 5159.854;  183.119; 5035.763;-0.01097
 850.12; 5047.636;  176.680; 4913.211;-0.01215
 850.68; 4929.752;  181.908; 4877.325;-0.00482
 851.24; 4919.200;  184.136; 4806.439;-0.01047
 851.80; 4938.316;  199.364; 4790.220;-0.01379
 852.37; 4876.098;  196.592; 4731.334;-0.01365
 852.93; 4774.213;  204.820; 4729.448;-0.00428
 853.49; 4706.662;  212.715; 4650.895;-0.00542
 854.05; 4707.444;  223.943; 4597.676;-0.01077
 854.61; 4715.560;  224.171; 4520.790;-0.01925
 855.17; 4675.342;  234.066; 4501.904;-0.01730
 855.73; 4679.124;  222.627; 4484.352;-0.01941
 856.29; 4685.573;  213.855; 4475.132;-0.02093
 856.85; 4684.021;  192.749; 4517.913;-0.01637
 857.41; 4712.137;  203.644; 4600.027;-0.01094
 857.97; 4728.586;  205.205; 4760.141; 0.00302
 858.53; 4883.701;  207.433; 4902.255; 0.00172
 859.09; 5074.816;  192.328; 5028.370;-0.00415
 859.65; 5355.599;  184.889; 5166.484;-0.01618
 860.21; 5623.047;  182.451; 5403.598;-0.01788
 860.77; 5929.496;  179.679; 5685.045;-0.01887
 861.33; 6292.278;  189.573; 6014.826;-0.02021
 861.89; 6594.060;  205.135; 6331.273;-0.01824
 862.45; 6916.509;  215.363; 6656.387;-0.01719
 863.01; 7231.625;  205.924; 6960.168;-0.01711
 863.57; 7595.407;  191.152; 7240.949;-0.02130
 864.13; 7928.855;  180.713; 7598.730;-0.01891
 864.69; 8259.304;  188.608; 7928.510;-0.01818
 865.25; 8657.420;  208.502; 8274.958;-0.02012
 865.81; 8960.868;  215.730; 8598.739;-0.01837
 866.37; 9234.651;  213.625; 8883.853;-0.01723
 866.93; 9486.099;  200.853; 9198.967;-0.01364
 867.49; 9864.881;  216.081; 9536.081;-0.01506
 868.05;10233.997;  210.642; 9849.195;-0.01700
 868.61;10597.112;  206.870;10116.309;-0.02058
 869.17;10851.228;  185.765;10306.090;-0.02279
 869.73;11209.676;  202.660;10652.537;-0.02256
 870.29;11548.459;  209.554;10985.985;-0.02210
 870.85;11945.907;  212.115;11316.099;-0.02396
 871.41;12310.356;  192.010;11700.213;-0.02244
 871.97;12654.805;  179.571;12032.994;-0.02220
 872.53;13014.587;  184.799;12414.108;-0.02082
 873.09;13390.702;  192.361;12748.222;-0.02167
 873.65;13800.818;  202.922;13125.336;-0.02213
 874.20;14235.267;  204.150;13530.783;-0.02237
 874.76;14625.267;  206.483;13844.450;-0.02418
 875.32;14962.267;  199.150;14344.450;-0.01857
 875.88;15292.933;  204.817;14722.117;-0.01675
 876.44;15607.933;  218.150;15059.450;-0.01576
 877.00;15966.600;  218.150;15358.117;-0.01711
 877.56;16241.600;  215.483;15696.450;-0.01503
 878.12;16599.600;  204.483;16104.450;-0.01332
 878.68;16878.267;  211.817;16344.450;-0.01414
 879.23;17211.600;  207.150;16637.783;-0.01491
 879.79;17498.933;  220.483;16875.783;-0.01595
 880.35;17696.267;  205.150;17127.117;-0.01437
 880.91;17942.600;  192.150;17367.783;-0.01430
 881.47;18183.267;  175.817;17611.783;-0.01401
 882.03;18550.600;  191.483;17929.783;-0.01494
 882.59;18879.600;  204.150;18199.450;-0.01611
 883.14;19058.933;  217.150;18423.117;-0.01491
 883.70;19221.600;  220.150;18492.117;-0.01700
 884.26;19281.267;  217.483;18606.117;-0.01566
 884.82;19334.933;  200.150;18627.783;-0.01635
 885.38;19321.267;  184.483;18693.783;-0.01448
 885.94;19322.267;  186.817;18692.783;-0.01453
 886.49;19305.600;  200.150;18759.783;-0.01259
 887.05;19390.267;  192.817;18819.450;-0.01311
 887.61;19299.933;  182.817;18766.450;-0.01229
 888.17;19249.600;  175.817;18655.450;-0.01374
 888.73;18941.933;  189.483;18492.450;-0.01054
 889.28;18726.267;  190.150;18251.117;-0.01128
 889.84;18517.933;  191.817;18020.450;-0.01195
 890.40;18449.600;  194.817;17792.450;-0.01592
 890.96;18321.600;  199.483;17628.450;-0.01694
 891.51;18120.600;  189.483;17470.117;-0.01605
 892.07;17815.267;  183.817;17244.117;-0.01430
 892.63;17725.933;  190.483;17036.783;-0.01741
 893.19;17606.933;  200.817;16880.117;-0.01852
 893.74;17525.600;  215.150;16772.783;-0.01931
 894.30;17352.933;  206.150;16671.450;-0.01761
 894.86;17146.933;  185.150;16510.450;-0.01661
 895.42;17018.933;  176.483;16397.450;-0.01633
 895.97;16874.267;  175.150;16362.450;-0.01352
 896.53;16846.933;  203.817;16299.450;-0.01453
 897.09;16761.267;  212.817;16258.117;-0.01341
 897.65;16790.933;  225.483;16079.783;-0.01906
 898.20;16771.600;  228.483;15994.117;-0.02091
 898.76;16721.267;  215.150;15888.117;-0.02249
 899.32;16518.933;  215.483;15824.450;-0.01891
 899.87;16392.267;  206.483;15765.117;-0.01716
 900.43;16280.600;  206.150;15631.783;-0.01789
 900.99;16181.600;  194.483;15508.450;-0.01868
 901.54;15928.933;  181.150;15319.450;-0.01714
 902.10;15776.933;  193.150;15133.117;-0.01832
 902.66;15536.933;  208.483;14918.117;-0.01790
 903.21;15443.933;  221.817;14754.117;-0.02014
 903.77;15159.933;  229.483;14588.450;-0.01695
 904.33;15002.267;  209.483;14443.783;-0.01671
 904.88;14824.933;  198.150;14329.783;-0.01496
 905.44;14795.600;  177.150;14293.450;-0.01518
 906.00;14786.267;  191.150;14324.117;-0.01397
 906.55;14712.267;  207.483;14294.117;-0.01270
 907.11;14638.600;  214.150;14239.117;-0.01220
 907.67;14450.600;  205.817;14016.117;-0.01345
 908.22;14309.267;  196.150;13855.783;-0.01418
 908.78;14134.600;  187.817;13715.783;-0.01324
 909.33;14064.933;  195.483;13616.783;-0.01426
 909.89;14011.267;  192.150;13488.783;-0.01674
 910.45;13941.933;  201.150;13406.783;-0.01725
 911.00;13768.600;  191.483;13362.117;-0.01320
 911.56;13625.267;  203.817;13272.117;-0.01158
 912.12;13521.933;  208.483;13101.117;-0.01395
 912.67;13477.267;  221.483;12951.117;-0.01759
 913.23;13297.267;  194.150;12807.450;-0.01655
 913.78;13175.267;  178.483;12651.783;-0.01785
 914.34;13066.933;  201.483;12642.117;-0.01458
 914.89;12997.933;  216.483;12543.117;-0.01574
 915.45;12903.600;  227.150;12558.117;-0.01200
 916.01;12760.933;  195.483;12386.117;-0.01315
 916.56;12625.267;  201.483;12282.450;-0.01215
 917.12;12520.267;  196.817;12063.117;-0.01642
 917.67;12446.933;  195.483;11981.117;-0.01683
 918.23;12363.933;  182.817;11944.450;-0.01522
 918.78;12217.933;  186.483;11927.117;-0.01063
 919.34;12124.933;  188.817;11843.783;-0.01035
 919.89;12063.600;  199.150;11694.117;-0.01374
 920.45;11954.933;  185.817;11531.783;-0.01590
 921.00;11709.267;  168.817;11330.783;-0.01448
 921.56;11612.933;  176.150;11296.783;-0.01217
 922.11;11485.933;  175.150;11154.450;-0.01292
 922.67;11405.933;  202.483;11048.450;-0.01408
 923.22;11211.600;  191.150;10815.450;-0.01590
 923.78;11091.267;  202.817;10632.117;-0.01871
 924.33;10985.267;  195.817;10497.117;-0.02011
 924.89;10799.267;  196.483;10361.117;-0.01833
 925.44;10555.933;  204.817;10248.117;-0.01311
 926.00;10379.933;  201.150;10018.783;-0.01569
 926.55;10232.933;  205.150; 9867.117;-0.01614
 927.11;10207.267;  188.150; 9720.450;-0.02163
 927.66;10121.600;  177.817; 9717.117;-0.01804
 928.22;10029.267;  174.483; 9670.783;-0.01609
 928.77; 9971.267;  190.150; 9636.117;-0.01514
 929.33; 9891.933;  204.150; 9587.783;-0.01385
 929.88; 9922.600;  205.150; 9516.450;-0.01854
 930.43; 9875.933;  182.483; 9493.450;-0.01748
 930.99; 9843.600;  174.817; 9470.117;-0.01711
 931.54; 9805.267;  167.150; 9456.783;-0.01599
 932.10; 9780.933;  190.150; 9473.117;-0.01417
 932.65; 9863.600;  197.150; 9480.117;-0.01758
 933.21; 9911.600;  198.483; 9496.450;-0.01897
 933.76; 9961.933;  187.483; 9472.117;-0.02233
 934.31; 9958.267;  183.150; 9454.117;-0.02300
 934.87; 9907.267;  190.150; 9433.783;-0.02169
 935.42; 9883.267;  199.483; 9431.450;-0.02075
 935.98; 9817.267;  195.483; 9388.450;-0.01980
 936.53; 9823.267;  193.817; 9335.450;-0.02258
 937.08; 9816.267;  191.150; 9347.783;-0.02167
 937.64; 9832.600;  197.817; 9356.783;-0.02200
 938.19; 9797.267;  196.483; 9425.117;-0.01717
 938.74; 9738.933;  199.817; 9340.117;-0.01855
 939.30; 9752.600;  187.150; 9339.783;-0.01916
 939.85; 9669.600;  186.483; 9209.783;-0.02159
 940.40; 9670.267;  173.817; 9251.783;-0.01957
 940.96; 9556.600;  187.150; 9238.450;-0.01500
 941.51; 9537.600;  189.483; 9244.783;-0.01382
 942.06; 9433.267;  197.150; 9160.450;-0.01302
 942.62; 9385.933;  184.817; 9036.783;-0.01680
 943.17; 9362.933;  195.150; 8966.450;-0.01920
 943.72; 9300.600;  180.483; 8903.117;-0.01935
 944.28; 9224.933;  199.483; 8795.117;-0.02119
 944.83; 9140.600;  184.150; 8766.783;-0.01852
 945.38; 9134.933;  194.483; 8735.117;-0.01987
 945.94; 9124.933;  186.483; 8804.450;-0.01586
 946.49; 9123.933;  205.150; 8772.783;-0.01744
 947.04; 9066.933;  208.817; 8738.117;-0.01643
 947.60; 8973.933;  215.150; 8638.117;-0.01698
 948.15; 8878.267;  203.483; 8519.117;-0.01836
 948.70; 8739.933;  212.817; 8413.783;-0.01694
 949.25; 8688.267;  206.150; 8325.117;-0.01900
 949.81; 8551.267;  208.817; 8271.117;-0.01483
 950.36; 8469.933;  198.483; 8157.117;-0.01674
 950.91; 8296.600;  207.150; 8037.783;-0.01412
 951.46; 8158.600;  203.817; 7873.117;-0.01587
 952.02; 7981.600;  207.150; 7734.117;-0.01405
 952.57; 7845.933;  207.150; 7606.450;-0.01383
 953.12; 7696.600;  218.483; 7526.117;-0.01002
 953.67; 7617.267;  218.150; 7443.783;-0.01030
 954.23; 7575.600;  215.817; 7359.450;-0.01295
 954.78; 7499.933;  208.150; 7234.450;-0.01611
 955.33; 7380.600;  218.150; 7119.783;-0.01611
 955.88; 7240.600;  217.150; 6980.117;-0.01641
 956.44; 7168.267;  230.483; 6838.450;-0.02115
 956.99; 7130.267;  228.817; 6737.117;-0.02547
 957.54; 7079.600;  223.817; 6672.783;-0.02657
 958.09; 6998.600;  222.150; 6636.783;-0.02383
 958.64; 6906.600;  206.817; 6607.450;-0.01984
 959.20; 6797.267;  203.483; 6532.450;-0.01780
 959.75; 6770.933;  199.817; 6496.450;-0.01853
 960.30; 6760.933;  218.150; 6441.783;-0.02172
 960.85; 6809.600;  225.150; 6424.450;-0.02618
 961.40; 6766.267;  228.817; 6381.117;-0.02637
 961.95; 6737.600;  231.817; 6360.783;-0.02591
 962.51; 6653.933;  239.483; 6360.117;-0.02036
 963.06; 6656.267;  242.817; 6380.117;-0.01911
 963.61; 6643.267;  234.150; 6314.783;-0.02285
 964.16; 6654.267;  235.150; 6258.450;-0.02764
 964.71; 6684.600;  222.483; 6212.117;-0.03297
 965.26; 6681.267;  213.150; 6253.117;-0.02974
 965.81; 6681.600;  210.817; 6289.117;-0.02717
 966.36; 6650.933;  208.483; 6323.783;-0.02263
 966.92; 6637.267;  216.150; 6305.117;-0.02307
 967.47; 6651.933;  218.483; 6338.117;-0.02172
 968.02; 6628.267;  232.483; 6354.117;-0.01903
 968.57; 6664.267;  234.817; 6375.450;-0.01996
 969.12; 6658.933;  219.817; 6368.783;-0.02002
 969.67; 6760.267;  204.483; 6420.783;-0.02309
 970.22; 6776.267;  194.150; 6469.783;-0.02071
 970.77; 6882.267;  199.817; 6539.117;-0.02289
 971.32; 6931.600;  197.483; 6593.117;-0.02240
 971.87; 7064.267;  198.817; 6693.117;-0.02414
 972.42; 7150.267;  215.150; 6793.117;-0.02296
 972.98; 7202.933;  220.817; 6908.783;-0.01869
 973.53; 7252.600;  231.483; 6996.117;-0.01616
 974.08; 7335.267;  215.483; 7040.450;-0.01837
 974.63; 7416.933;  223.483; 7078.450;-0.02093
 975.18; 7493.933;  218.483; 7103.117;-0.02398
 975.73; 7510.267;  224.817; 7157.450;-0.02156
 976.28; 7588.267;  221.483; 7219.117;-0.02233
 976.83; 7636.933;  221.483; 7315.450;-0.01925
 977.38; 7683.267;  219.483; 7373.783;-0.01839
 977.93; 7730.600;  222.150; 7387.450;-0.02032
 978.48; 7724.267;  228.483; 7365.783;-0.02128
 979.03; 7737.933;  234.817; 7358.117;-0.02256
 979.58; 7718.267;  221.483; 7329.117;-0.02315
 980.13; 7761.933;  207.150; 7367.783;-0.02327
 980.68; 7720.933;  186.483; 7310.450;-0.02433
 981.23; 7620.933;  185.817; 7278.117;-0.02050
 981.78; 7567.933;  207.150; 7207.450;-0.02181
 982.33; 7550.600;  219.150; 7257.117;-0.01774
 982.88; 7595.267;  232.483; 7211.783;-0.02323
 983.43; 7473.933;  218.150; 7145.783;-0.02010
 983.98; 7405.267;  215.150; 6984.117;-0.02621
 984.53; 7245.267;  203.817; 6873.450;-0.02356
 985.08; 7220.600;  209.817; 6835.783;-0.02452
 985.63; 7155.600;  211.150; 6787.117;-0.02368
 986.18; 7132.267;  218.817; 6756.783;-0.02425
 986.73; 6982.600;  218.483; 6610.450;-0.02458
 987.27; 6922.600;  227.483; 6521.117;-0.02686
 987.82; 6825.600;  238.483; 6431.783;-0.02677
 988.37; 6764.600;  243.150; 6400.783;-0.02493
 988.92; 6621.600;  234.150; 6351.117;-0.01879
 989.47; 6553.600;  214.483; 6285.117;-0.01879
 990.02; 6532.267;  208.483; 6199.117;-0.02350
 990.57; 6500.600;  208.150; 6083.117;-0.02981
 991.12; 6417.933;  215.150; 6044.450;-0.02697
 991.67; 6316.933;  213.817; 5969.117;-0.02548
 992.22; 6191.600;  200.483; 5915.450;-0.02049
 992.77; 6121.600;  200.150; 5802.450;-0.02406
 993.31; 6025.933;  204.817; 5735.783;-0.02221
 993.86; 5971.267;  230.483; 5683.783;-0.02231
 994.41; 5864.933;  235.150; 5580.117;-0.02255
 994.96; 5754.933;  226.483; 5473.117;-0.02272
 995.51; 5612.600;  218.817; 5377.783;-0.01933
 996.06; 5521.267;  208.483; 5293.783;-0.01901
 996.61; 5397.933;  222.483; 5201.783;-0.01678
 997.15; 5311.933;  236.150; 5083.450;-0.02000
 997.70; 5142.267;  241.150; 4965.117;-0.01599
 998.25; 5076.267;  247.483; 4873.450;-0.01864
 998.80; 4948.600;  248.483; 4740.117;-0.01970
 999.35; 4857.600;  249.483; 4623.450;-0.02265
 999.90; 4713.267;  236.150; 4455.117;-0.02579
1000.44; 4595.933;  224.483; 4340.450;-0.02615
1000.99; 4422.933;  232.483; 4190.783;-0.02475
1001.54; 4273.267;  237.150; 4067.450;-0.02273
1002.09; 4117.600;  231.817; 3939.117;-0.02042
1002.64; 4032.267;  238.483; 3855.450;-0.02073
1003.18; 3922.933;  240.483; 3766.783;-0.01882
1003.73; 3809.933;  238.483; 3661.450;-0.01844
1004.28; 3689.600;  226.817; 3584.450;-0.01339
1004.83; 3606.267;  209.483; 3488.117;-0.01537
1005.38; 3525.600;  210.150; 3420.783;-0.01395
1005.92; 3466.933;  219.150; 3321.783;-0.01986
1006.47; 3380.600;  236.817; 3231.783;-0.02106
1007.02; 3330.933;  235.483; 3140.117;-0.02763
1007.57; 3242.600;  222.817; 3087.450;-0.02291
1008.11; 3187.600;  211.817; 3028.450;-0.02387
1008.66; 3098.267;  205.150; 2973.450;-0.01915
1009.21; 3016.600;  192.483; 2907.783;-0.01706
1009.75; 2924.933;  177.817; 2862.117;-0.01005
1010.30; 2870.267;  170.150; 2793.117;-0.01259
1010.85; 2831.267;  176.817; 2712.783;-0.01983
1011.40; 2745.267;  204.150; 2628.450;-0.02044
1011.94; 2662.933;  221.817; 2545.783;-0.02136
1012.49; 2559.933;  216.483; 2464.450;-0.01807
1013.04; 2511.933;  194.150; 2362.117;-0.02902
1013.58; 2429.933;  184.150; 2325.117;-0.02076
1014.13; 2392.267;  188.483; 2268.117;-0.02518
1014.68; 2310.600;  196.483; 2233.450;-0.01615
1015.23; 2264.933;  203.150; 2181.450;-0.01795
1015.77; 2190.933;  199.817; 2113.117;-0.01731
1016.32; 2127.267;  204.817; 2072.450;-0.01256
1016.87; 2067.933;  209.483; 2012.783;-0.01308
1017.41; 2018.933;  206.817; 1977.450;-0.01006
1017.96; 1989.267;  194.817; 1953.450;-0.00876
1018.50; 1942.267;  186.483; 1926.450;-0.00393
1019.05; 1897.933;  188.483; 1903.450; 0.00140
1019.60; 1858.933;  182.817; 1815.783;-0.01133
1020.14; 1796.267;  196.150; 1752.783;-0.01197
1020.69; 1778.600;  196.150; 1698.117;-0.02267
1021.24; 1712.600;  209.483; 1650.450;-0.01834
1021.78; 1699.267;  188.483; 1620.450;-0.02327
1022.33; 1641.933;  190.150; 1592.450;-0.01506
1022.87; 1617.267;  182.817; 1587.783;-0.00902
1023.42; 1562.933;  198.150; 1567.117; 0.00133
1023.97; 1525.933;  200.150; 1516.117;-0.00323
1024.51; 1501.267;  212.150; 1465.117;-0.01235
1025.06; 1475.267;  200.483; 1401.117;-0.02603
1025.60; 1415.600;  198.817; 1340.783;-0.02756
1026.15; 1380.267;  181.150; 1307.783;-0.02708
1026.70; 1345.933;  185.483; 1284.783;-0.02351
1027.24; 1336.267;  195.483; 1279.783;-0.02205
1027.79; 1319.933;  200.483; 1270.450;-0.01963
1028.33; 1303.933;  197.483; 1252.450;-0.02069
1028.88; 1282.933;  188.817; 1215.450;-0.02765
1029.42; 1240.600;  208.150; 1198.450;-0.01810
1029.97; 1205.933;  197.817; 1156.450;-0.02186
1030.51; 1174.267;  190.150; 1127.117;-0.02132
1031.06; 1159.600;  182.817; 1088.783;-0.03269
1031.61; 1122.933;  192.483; 1063.117;-0.02886
1032.15; 1111.267;  210.150; 1050.450;-0.03035
1032.70; 1069.267;  202.817; 1024.117;-0.02324
1033.24; 1064.933;  206.483; 1018.117;-0.02436
1033.79; 1064.933;  200.817; 1020.450;-0.02295
1034.33; 1039.267;  199.817; 1016.450;-0.01197
1034.88; 1015.267;  201.817; 1008.783;-0.00348
1035.42;  984.267;  202.817;  979.450;-0.00269
1035.97;  995.267;  204.483;  950.450;-0.02534
1036.51; 1000.600;  206.483;  931.450;-0.03957
1037.06;  980.267;  200.817;  944.117;-0.02062
1037.60;  996.933;  207.150;  948.783;-0.02732
1038.14;  976.933;  204.150;  928.783;-0.02794
1038.69; 1000.600;  222.150;  927.783;-0.04265
1039.23;  989.933;  234.483;  935.783;-0.03230
1039.78;  990.933;  235.150;  948.783;-0.02492
1040.32;  978.600;  224.483;  915.783;-0.03777
1040.87;  966.600;  208.483;  887.117;-0.04810
1041.41;  955.933;  198.150;  864.117;-0.05609
1041.96;  939.933;  200.817;  882.783;-0.03495
1042.50;  920.600;  197.817;  893.117;-0.01684
1043.04;  929.600;  213.817;  899.117;-0.01890
1043.59;  920.933;  217.150;  867.450;-0.03433
1044.13;  921.600;  212.483;  869.450;-0.03317
1044.68;  891.600;  205.817;  862.117;-0.01908
1045.22;  872.600;  199.150;  873.783; 0.00076
1045.76;  862.267;  201.817;  869.450; 0.00470
1046.31;  857.933;  193.483;  861.783; 0.00251
1046.85;  865.600;  200.483;  842.117;-0.01561
1047.40;  849.267;  202.483;  813.783;-0.02450
1047.94;  859.933;  215.150;  808.783;-0.03590
1048.48;  830.600;  211.150;  810.117;-0.01460
1049.03;  813.933;  214.483;  793.450;-0.01510
1049.57;  818.267;  229.150;  787.117;-0.02359
1050.11;  830.267;  222.817;  774.117;-0.04212
1050.66;  836.267;  218.483;  779.117;-0.04216
1051.20;  819.600;  206.483;  794.450;-0.01819
1051.74;  793.933;  200.817;  788.117;-0.00428
1052.29;  762.600;  200.150;  780.783; 0.01382
1052.83;  747.933;  199.150;  748.117; 0.00015
1053.37;  765.600;  224.817;  744.783;-0.01705
1053.92;  765.267;  234.150;  739.783;-0.02135
1054.46;  757.933;  236.483;  734.117;-0.02030
1055.00;  752.933;  231.483;  739.117;-0.01166
1055.55;  748.267;  230.817;  738.117;-0.00860
1056.09;  734.933;  223.817;  747.783; 0.01078
1056.63;  704.600;  215.817;  711.783; 0.00634
1057.17;  714.267;  216.483;  709.117;-0.00452
1057.72;  706.600;  225.150;  697.450;-0.00833
1058.26;  702.933;  223.483;  705.783; 0.00257
1058.80;  695.600;  229.817;  700.450; 0.00450
1059.35;  690.267;  230.483;  686.450;-0.00362
1059.89;  689.267;  230.150;  672.450;-0.01621
1060.43;  683.600;  227.817;  654.783;-0.02836
1060.97;  668.600;  223.817;  667.117;-0.00145
1061.52;  668.267;  231.150;  682.450; 0.01387
1062.06;  656.267;  231.483;  671.450; 0.01525
1062.60;  654.933;  236.483;  658.450; 0.00363
1063.14;  642.600;  232.483;  640.783;-0.00193
1063.69;  631.600;  216.483;  640.117; 0.00882
1064.23;  623.600;  208.817;  619.783;-0.00401
1064.77;  621.600;  200.483;  598.450;-0.02456
1065.31;  624.267;  201.817;  577.450;-0.05101
1065.85;  625.267;  206.483;  567.117;-0.06492
1066.40;  616.600;  205.150;  579.450;-0.04110
1066.94;  621.267;  217.817;  579.117;-0.04792
1067.48;  609.600;  209.150;  587.783;-0.02433
1068.02;  602.267;  233.817;  562.450;-0.04967
1068.56;  576.267;  216.817;  564.783;-0.01410
1069.10;  567.933;  212.817;  549.783;-0.02278
1069.65;  561.600;  195.817;  566.450; 0.00572
1070.19;  560.933;  208.817;  566.783; 0.00716
1070.73;  571.933;  223.817;  582.783; 0.01333
1071.27;  563.600;  215.817;  567.117; 0.00437
1071.81;  554.933;  207.150;  562.117; 0.00888
1072.35;  555.933;  201.817;  549.117;-0.00844
1072.90;  561.600;  197.150;  546.783;-0.01803
1073.44;  577.600;  202.817;  540.117;-0.04576
1073.98;  570.600;  206.150;  531.450;-0.04935
1074.52;  583.600;  224.483;  538.783;-0.05789
1075.06;  569.600;  218.483;  542.450;-0.03495
1075.60;  550.600;  207.483;  531.450;-0.02494
1076.14;  530.600;  204.817;  514.117;-0.02255
1076.68;  532.267;  207.150;  504.450;-0.03884
1077.22;  540.600;  225.817;  504.783;-0.05246
1077.76;  525.600;  214.817;  498.117;-0.04021
1078.31;  520.267;  229.817;  499.783;-0.03176
1078.85;  540.933;  226.483;  517.117;-0.03421
1079.39;  544.933;  243.817;  525.450;-0.02905
1079.93;  532.933;  237.817;  507.783;-0.03868
1080.47;  499.600;  227.483;  476.450;-0.03861
1081.01;  498.267;  216.150;  474.783;-0.03774
1081.55;  509.933;  208.483;  488.783;-0.03159
1082.09;  504.600;  205.817;  488.783;-0.02362
1082.63;  501.933;  210.150;  496.450;-0.00824
1083.17;  496.600;  221.150;  500.783; 0.00655
1083.71;  500.600;  228.817;  501.450; 0.00136
1084.25;  491.267;  224.483;  471.117;-0.03411
1084.79;  471.267;  214.483;  446.450;-0.04414
1085.33;  471.933;  202.817;  450.783;-0.03555
1085.87;  469.933;  199.483;  468.450;-0.00239
1086.41;  489.933;  214.483;  471.450;-0.03017
1086.95;  485.267;  222.150;  467.117;-0.03104
1087.49;  491.267;  225.817;  454.783;-0.06421
1088.03;  476.267;  216.817;  454.117;-0.03876
1088.57;  464.600;  219.817;  450.783;-0.02523
1089.11;  465.933;  222.150;  448.117;-0.03296
1089.65;  489.600;  233.150;  458.783;-0.05560
1090.19;  493.933;  238.483;  468.117;-0.04627
1090.73;  481.600;  240.483;  471.783;-0.01805
1091.27;  465.933;  238.817;  466.117; 0.00035
1091.81;  463.267;  238.483;  458.117;-0.01007
1092.35;  469.267;  247.483;  461.450;-0.01558
1092.89;  467.933;  232.150;  457.450;-0.01975
1093.43;  466.267;  223.817;  445.783;-0.03833
1093.97;  470.267;  210.150;  441.117;-0.05162
1094.51;  459.600;  208.483;  440.450;-0.03445
1095.04;  455.933;  218.483;  442.783;-0.02474
1095.58;  465.267;  238.817;  436.783;-0.05838
1096.12;  474.600;  242.817;  428.783;-0.09565
1096.66;  479.933;  239.817;  430.450;-0.10022
1097.20;  463.267;  235.817;  449.450;-0.02722
1097.74;  462.600;  246.817;  456.783;-0.01187
1098.28;  455.933;  235.817;  457.117; 0.00233
1098.82;  445.267;  230.483;  453.117; 0.01559
1099.36;  426.600;  228.150;  446.450; 0.04140
1099.89;  422.933;  230.150;  447.450; 0.05199

