
Integration time [ms]:   0.300
Averaging Nr. [scans]: 1
Smoothing Nr. [pixels]: 1
Data measured with spectrometer [name]: 1906252U1
Wave   ;Sample   ;Dark     ;Reference;Absorbance
[nm]   ;[counts] ;[counts] ;[counts] ;[A.U]

 161.30;  279.401;  271.207;  271.637; 0.00000
 161.90;  272.047;  265.524;  261.712; 0.00000
 162.51;  272.852;  259.038;  260.433;-0.99599
 163.11;  279.205;  265.693;  251.834; 0.00000
 163.71;  268.531;  276.696;  266.803; 0.00000
 164.31;  262.281;  294.270;  273.488; 0.00000
 164.91;  261.165;  288.393;  287.410; 0.00000
 165.52;  273.937;  277.299;  279.261; 5.00000
 166.12;  289.942;  271.979;  273.718;-1.01426
 166.72;  283.955;  272.971;  259.755; 0.00000
 167.32;  290.932;  271.656;  271.040; 0.00000
 167.93;  275.668;  261.266;  267.518;-0.36240
 168.53;  271.482;  254.112;  260.296;-0.44857
 169.13;  265.160;  264.427;  257.261; 0.00000
 169.73;  264.244;  271.677;  266.351; 0.00000
 170.33;  293.569;  291.614;  320.561; 1.17043
 170.94;  310.623;  317.756;  347.746; 5.00000
 171.54;  337.344;  335.278;  387.239; 1.40059
 172.14;  337.356;  338.926;  375.538; 5.00000
 172.74;  334.934;  324.358;  373.181; 0.66428
 173.34;  330.363;  319.589;  355.569; 0.52369
 173.95;  333.360;  309.596;  343.923; 0.15972
 174.55;  340.000;  318.289;  355.228; 0.23080
 175.15;  338.265;  320.689;  367.155; 0.42221
 175.75;  333.926;  322.370;  380.195; 0.69931
 176.35;  333.198;  332.415;  382.036; 1.80160
 176.95;  336.854;  327.740;  392.907; 0.85428
 177.56;  350.650;  327.608;  398.355; 0.48719
 178.16;  347.531;  316.738;  399.298; 0.42832
 178.76;  351.308;  316.306;  398.487; 0.37067
 179.36;  339.419;  310.874;  401.343; 0.50096
 179.96;  337.502;  304.800;  395.813; 0.44452
 180.56;  338.692;  308.938;  392.969; 0.45089
 181.17;  340.605;  318.009;  403.448; 0.57762
 181.77;  359.378;  318.897;  417.181; 0.38523
 182.37;  361.291;  306.653;  404.111; 0.25133
 182.97;  381.301;  319.309;  413.789; 0.18301
 183.57;  389.757;  323.525;  427.944; 0.19771
 184.17;  415.885;  336.736;  473.104; 0.23627
 184.78;  428.669;  316.624;  484.587; 0.17582
 185.38;  430.609;  315.012;  504.833; 0.21540
 185.98;  440.826;  315.783;  504.638; 0.17907
 186.58;  449.672;  316.598;  510.449; 0.16337
 187.18;  457.930;  313.002;  491.678; 0.09091
 187.78;  463.673;  324.256;  526.070; 0.16063
 188.38;  459.424;  331.840;  541.159; 0.21501
 188.98;  467.127;  337.804;  574.199; 0.26196
 189.59;  475.702;  332.575;  567.529; 0.21526
 190.19;  479.093;  326.870;  580.708; 0.22208
 190.79;  488.709;  326.914;  573.939; 0.18378
 191.39;  477.786;  317.159;  564.285; 0.18710
 191.99;  485.459;  322.498;  545.363; 0.13596
 192.59;  468.322;  317.307;  539.929; 0.16855
 193.19;  451.185;  313.765;  525.712; 0.18818
 193.79;  445.114;  325.164;  530.280; 0.23300
 194.39;  445.713;  328.250;  517.658; 0.20750
 195.00;  446.430;  327.216;  511.139; 0.18831
 195.60;  417.071;  305.566;  480.732; 0.19615
 196.20;  395.540;  304.088;  469.473; 0.25730
 196.80;  380.689;  305.278;  453.989; 0.29491
 197.40;  383.273;  313.686;  455.186; 0.30823
 198.00;  372.925;  320.693;  452.457; 0.40186
 198.60;  375.357;  317.270;  442.943; 0.33516
 199.20;  349.200;  312.435;  427.513; 0.49555
 199.80;  348.025;  303.957;  416.753; 0.40817
 200.40;  329.488;  299.492;  396.868; 0.51139
 201.00;  329.794;  293.841;  371.434; 0.33409
 201.60;  313.120;  292.845;  340.403; 0.37026
 202.21;  305.301;  298.995;  352.240; 0.92652
 202.81;  315.546;  303.760;  367.883; 0.73563
 203.41;  321.849;  301.801;  377.921; 0.57943
 204.01;  323.870;  296.447;  373.611; 0.44930
 204.61;  317.691;  287.965;  374.799; 0.46556
 205.21;  335.141;  280.528;  391.328; 0.30725
 205.81;  333.675;  276.000;  394.567; 0.31297
 206.41;  327.146;  281.190;  389.667; 0.37299
 207.01;  301.738;  291.585;  373.516; 0.90686
 207.61;  294.484;  290.832;  349.221; 1.20378
 208.21;  287.649;  294.007;  340.088; 5.00000
 208.81;  299.279;  285.376;  350.048; 0.66762
 209.41;  299.663;  292.971;  355.294; 0.96909
 210.01;  316.967;  286.985;  361.835; 0.39733
 210.61;  305.423;  290.534;  351.990; 0.61571
 211.21;  305.570;  293.399;  356.219; 0.71275
 211.81;  304.164;  300.157;  352.258; 1.11406
 212.41;  303.757;  301.896;  344.513; 1.35987
 213.01;  307.639;  296.332;  351.625; 0.68933
 213.61;  300.038;  285.263;  357.339; 0.68825
 214.21;  307.372;  282.939;  368.411; 0.54385
 214.81;  301.618;  278.704;  361.387; 0.55733
 215.41;  305.192;  282.466;  362.645; 0.54754
 216.01;  295.743;  278.247;  362.189; 0.68102
 216.61;  287.395;  287.920;  357.792; 5.00000
 217.21;  281.709;  290.599;  357.391; 5.00000
 217.81;  290.091;  297.221;  367.800; 5.00000
 218.41;  320.687;  301.628;  379.081; 0.60895
 219.01;  315.838;  307.801;  388.505; 1.00183
 219.61;  304.567;  301.739;  384.906; 1.46845
 220.21;  284.418;  297.568;  378.507; 5.00000
 220.81;  301.588;  283.737;  372.713; 0.69761
 221.41;  328.234;  284.091;  376.024; 0.31861
 222.01;  330.569;  280.426;  372.049; 0.26179
 222.61;  335.366;  298.953;  367.451; 0.27442
 223.21;  327.484;  301.813;  357.103; 0.33320
 223.81;  325.019;  301.952;  360.676; 0.40582
 224.41;  311.456;  281.875;  343.618; 0.31958
 225.01;  298.691;  269.317;  340.250; 0.38289
 225.61;  302.554;  274.108;  341.033; 0.37157
 226.21;  298.201;  273.112;  349.918; 0.48591
 226.81;  290.819;  286.490;  349.175; 1.16083
 227.41;  306.252;  284.059;  344.282; 0.43354
 228.01;  315.148;  302.172;  351.241; 0.57768
 228.61;  335.277;  306.727;  360.474; 0.27474
 229.21;  313.511;  303.825;  362.700; 0.78381
 229.81;  314.995;  308.998;  372.791; 1.02684
 230.41;  317.937;  299.055;  383.396; 0.64999
 231.01;  318.846;  300.808;  405.942; 0.76555
 231.61;  309.345;  287.307;  401.095; 0.71293
 232.21;  308.002;  300.328;  383.489; 1.03488
 232.81;  316.368;  296.307;  370.928; 0.57051
 233.41;  332.764;  302.578;  372.995; 0.36787
 234.00;  329.758;  298.240;  379.918; 0.41354
 234.60;  327.171;  290.487;  363.623; 0.29965
 235.20;  311.502;  295.152;  359.264; 0.59341
 235.80;  309.993;  295.330;  365.432; 0.67950
 236.40;  313.897;  302.765;  379.044; 0.83581
 237.00;  322.069;  303.584;  384.824; 0.64293
 237.60;  319.307;  294.000;  377.651; 0.51922
 238.20;  319.856;  295.121;  389.214; 0.58025
 238.80;  297.880;  274.112;  389.668; 0.68681
 239.40;  298.499;  279.177;  403.402; 0.80816
 240.00;  300.410;  284.599;  402.640; 0.87307
 240.59;  315.859;  298.133;  401.312; 0.76498
 241.19;  321.663;  297.989;  399.745; 0.63330
 241.79;  325.612;  288.710;  384.715; 0.41524
 242.39;  327.105;  292.222;  383.909; 0.41970
 242.99;  327.680;  286.642;  375.121; 0.33365
 243.59;  321.412;  289.230;  388.763; 0.49035
 244.19;  317.823;  286.160;  385.560; 0.49684
 244.79;  315.488;  287.511;  384.652; 0.54061
 245.39;  316.374;  287.293;  395.554; 0.57086
 245.98;  312.947;  273.053;  391.453; 0.47245
 246.58;  306.504;  274.487;  389.290; 0.55456
 247.18;  311.973;  285.342;  384.364; 0.57034
 247.78;  330.297;  295.696;  398.758; 0.47401
 248.38;  339.674;  288.656;  421.162; 0.41451
 248.98;  327.622;  277.356;  419.988; 0.45294
 249.58;  315.637;  265.673;  430.671; 0.51882
 250.17;  317.375;  275.285;  426.842; 0.55639
 250.77;  316.515;  283.143;  431.967; 0.64929
 251.37;  316.383;  286.929;  425.089; 0.67124
 251.97;  306.363;  270.293;  429.805; 0.64565
 252.57;  310.036;  265.298;  436.882; 0.58381
 253.17;  312.061;  272.929;  449.172; 0.65358
 253.77;  316.142;  284.186;  466.282; 0.75575
 254.36;  332.202;  295.474;  468.774; 0.67380
 254.96;  334.342;  295.333;  480.567; 0.67656
 255.56;  325.738;  288.604;  484.301; 0.72181
 256.16;  308.556;  278.462;  506.509; 0.87955
 256.76;  295.159;  277.524;  496.109; 1.09324
 257.36;  309.621;  276.735;  508.603; 0.84823
 257.95;  315.368;  264.992;  503.713; 0.67567
 258.55;  325.781;  264.239;  518.084; 0.61540
 259.15;  325.127;  260.564;  510.454; 0.58777
 259.75;  333.012;  269.345;  523.998; 0.60203
 260.35;  345.864;  267.461;  538.318; 0.53841
 260.94;  333.479;  268.819;  539.764; 0.62224
 261.54;  329.441;  275.530;  547.771; 0.70327
 262.14;  320.939;  279.723;  553.422; 0.82221
 262.74;  335.593;  296.084;  592.169; 0.87472
 263.34;  326.040;  285.302;  604.600; 0.89420
 263.93;  312.267;  271.414;  619.201; 0.93008
 264.53;  315.855;  269.158;  628.783; 0.88656
 265.13;  313.385;  270.950;  628.566; 0.92569
 265.73;  310.581;  275.426;  648.466; 1.02577
 266.33;  315.451;  278.566;  678.397; 1.03503
 266.92;  304.998;  275.029;  689.673; 1.14100
 267.52;  320.736;  279.954;  705.726; 1.01871
 268.12;  324.408;  273.264;  717.281; 0.93860
 268.72;  325.709;  281.951;  749.175; 1.02847
 269.31;  332.728;  293.596;  782.505; 1.09670
 269.91;  316.519;  296.813;  783.686; 1.39282
 270.51;  346.133;  298.884;  823.747; 1.04565
 271.11;  334.342;  296.018;  844.685; 1.15584
 271.70;  333.076;  281.274;  877.686; 1.06120
 272.30;  311.763;  270.568;  887.924; 1.17569
 272.90;  326.886;  264.784;  909.412; 1.01620
 273.50;  328.233;  274.785;  916.521; 1.07943
 274.09;  341.649;  285.359;  947.539; 1.07054
 274.69;  334.234;  293.425;  961.690; 1.21419
 275.29;  340.540;  297.126; 1011.041; 1.21601
 275.89;  344.526;  301.162; 1057.168; 1.24139
 276.48;  369.600;  306.441; 1108.365; 1.10370
 277.08;  384.834;  303.217; 1149.330; 1.01564
 277.68;  387.815;  300.562; 1156.928; 0.99188
 278.28;  378.090;  297.934; 1188.748; 1.04585
 278.87;  390.902;  305.120; 1219.213; 1.02760
 279.47;  410.966;  316.402; 1279.019; 1.00773
 280.07;  421.138;  311.564; 1306.537; 0.95810
 280.66;  414.766;  305.599; 1329.806; 0.97229
 281.26;  427.201;  299.502; 1356.605; 0.91793
 281.86;  431.355;  299.353; 1408.460; 0.92439
 282.46;  447.592;  289.111; 1464.667; 0.87027
 283.05;  461.379;  270.001; 1525.842; 0.81704
 283.65;  467.780;  269.267; 1577.248; 0.81881
 284.25;  461.806;  276.537; 1628.707; 0.86323
 284.84;  460.354;  297.639; 1660.819; 0.92312
 285.44;  489.094;  304.585; 1722.349; 0.88559
 286.04;  513.719;  306.626; 1767.304; 0.84839
 286.63;  530.060;  299.604; 1827.551; 0.82152
 287.23;  531.734;  285.934; 1878.582; 0.81154
 287.83;  549.695;  285.987; 1956.635; 0.80176
 288.42;  562.751;  282.947; 2012.456; 0.79107
 289.02;  588.009;  281.018; 2081.351; 0.76823
 289.62;  587.183;  274.153; 2105.373; 0.76716
 290.21;  608.369;  278.965; 2173.882; 0.75986
 290.81;  628.879;  296.139; 2171.832; 0.75106
 291.41;  654.674;  301.675; 2217.279; 0.73453
 292.00;  665.987;  287.695; 2273.257; 0.72006
 292.60;  687.213;  266.816; 2355.570; 0.69623
 293.20;  709.970;  269.053; 2441.953; 0.69268
 293.79;  748.673;  275.331; 2498.541; 0.67181
 294.39;  752.000;  284.326; 2544.463; 0.68419
 294.99;  766.568;  280.435; 2588.095; 0.67642
 295.58;  763.999;  284.687; 2619.961; 0.68772
 296.18;  799.923;  271.100; 2672.236; 0.65711
 296.78;  828.547;  267.474; 2741.524; 0.64439
 297.37;  863.309;  256.039; 2819.912; 0.62551
 297.97;  906.493;  255.858; 2927.442; 0.61343
 298.57;  966.288;  262.727; 2989.557; 0.58836
 299.16; 1006.637;  278.359; 3083.789; 0.58570
 299.76; 1016.887;  281.775; 3176.366; 0.59523
 300.35; 1035.129;  281.214; 3269.362; 0.59808
 300.95; 1070.600;  278.404; 3324.462; 0.58491
 301.55; 1090.424;  287.229; 3346.846; 0.58085
 302.14; 1126.664;  278.314; 3431.366; 0.57016
 302.74; 1186.149;  277.164; 3537.862; 0.55475
 303.33; 1256.481;  277.506; 3665.575; 0.53918
 303.93; 1266.924;  284.053; 3763.621; 0.54903
 304.53; 1307.082;  290.889; 3809.743; 0.53943
 305.12; 1348.985;  285.666; 3889.067; 0.53005
 305.72; 1428.977;  304.345; 3962.749; 0.51228
 306.31; 1420.427;  292.556; 4062.826; 0.52411
 306.91; 1439.191;  290.122; 4183.574; 0.52999
 307.51; 1447.319;  280.000; 4278.734; 0.53473
 308.10; 1499.279;  295.710; 4394.048; 0.53214
 308.70; 1547.111;  291.190; 4468.751; 0.52196
 309.29; 1590.647;  287.634; 4547.826; 0.51448
 309.89; 1625.729;  264.902; 4638.675; 0.50705
 310.48; 1691.316;  273.673; 4739.754; 0.49836
 311.08; 1727.033;  268.620; 4876.118; 0.49958
 311.68; 1763.413;  273.221; 4959.384; 0.49758
 312.27; 1775.937;  278.703; 5074.278; 0.50555
 312.87; 1808.781;  271.869; 5225.848; 0.50831
 313.46; 1922.291;  276.691; 5385.013; 0.49195
 314.06; 1994.127;  276.193; 5529.885; 0.48546
 314.65; 2060.423;  282.238; 5632.559; 0.47840
 315.25; 2077.739;  283.262; 5774.255; 0.48571
 315.85; 2111.697;  277.637; 5914.876; 0.48765
 316.44; 2186.088;  287.913; 6071.938; 0.48389
 317.04; 2245.087;  295.255; 6216.984; 0.48245
 317.63; 2333.509;  310.823; 6400.341; 0.47865
 318.23; 2398.243;  298.737; 6546.296; 0.47359
 318.82; 2464.103;  293.221; 6674.883; 0.46830
 319.42; 2506.721;  273.276; 6781.545; 0.46449
 320.01; 2548.926;  280.055; 6929.646; 0.46699
 320.61; 2593.821;  290.511; 7164.652; 0.47487
 321.20; 2673.268;  285.758; 7272.939; 0.46636
 321.80; 2761.817;  292.860; 7497.718; 0.46511
 322.39; 2843.493;  275.154; 7636.540; 0.45731
 322.99; 2884.218;  275.755; 7857.556; 0.46339
 323.58; 2956.396;  286.597; 7977.531; 0.45950
 324.18; 3044.441;  287.901; 8124.673; 0.45377
 324.77; 3128.514;  292.485; 8318.013; 0.45176
 325.37; 3203.679;  278.984; 8442.167; 0.44578
 325.96; 3279.085;  276.253; 8588.958; 0.44221
 326.56; 3353.235;  298.768; 8771.095; 0.44307
 327.15; 3375.960;  300.036; 8947.778; 0.44893
 327.75; 3403.402;  300.925; 9129.536; 0.45418
 328.34; 3460.951;  272.723; 9291.838; 0.45161
 328.94; 3545.947;  266.072; 9447.905; 0.44707
 329.53; 3576.587;  277.765; 9658.876; 0.45390
 330.13; 3653.909;  293.098; 9872.460; 0.45489
 330.72; 3699.882;  297.428;10112.576; 0.46010
 331.32; 3833.821;  296.807;10347.750; 0.45357
 331.91; 3919.298;  286.021;10578.045; 0.45220
 332.51; 4009.168;  290.846;10832.428; 0.45256
 333.10; 4074.076;  280.941;11112.686; 0.45570
 333.69; 4175.958;  268.720;11343.870; 0.45248
 334.29; 4236.999;  259.020;11372.294; 0.44618
 334.88; 4233.840;  263.526;11404.218; 0.44809
 335.48; 4210.537;  274.151;11347.513; 0.44918
 336.07; 4242.628;  277.361;11521.065; 0.45264
 336.67; 4272.172;  271.793;11561.792; 0.45059
 337.26; 4333.482;  270.478;11724.744; 0.45012
 337.86; 4390.657;  274.661;11795.073; 0.44699
 338.45; 4450.934;  285.081;11996.201; 0.44889
 339.04; 4497.768;  280.248;12122.714; 0.44838
 339.64; 4566.743;  279.247;12324.855; 0.44862
 340.23; 4640.408;  276.541;12444.594; 0.44535
 340.83; 4661.167;  283.446;12579.002; 0.44850
 341.42; 4689.292;  284.034;12728.085; 0.45099
 342.02; 4729.526;  280.810;12860.717; 0.45144
 342.61; 4816.596;  285.029;12994.842; 0.44789
 343.20; 4856.236;  280.703;13173.363; 0.44990
 343.80; 4929.267;  275.024;13326.514; 0.44781
 344.39; 4959.113;  277.525;13574.777; 0.45337
 344.99; 5013.269;  284.701;13698.586; 0.45282
 345.58; 5080.009;  281.629;13941.331; 0.45435
 346.17; 5174.222;  272.425;14086.941; 0.44998
 346.77; 5256.056;  263.601;14425.499; 0.45281
 347.36; 5305.900;  267.766;14640.403; 0.45527
 347.96; 5365.881;  271.456;14918.073; 0.45864
 348.55; 5423.620;  272.039;15018.413; 0.45674
 349.14; 5493.169;  269.152;15148.264; 0.45457
 349.74; 5561.472;  282.193;15379.635; 0.45633
 350.33; 5653.408;  292.264;15619.281; 0.45620
 350.92; 5676.963;  292.029;15990.758; 0.46468
 351.52; 5751.994;  276.988;16197.719; 0.46358
 352.11; 5821.336;  277.642;16449.038; 0.46495
 352.70; 5952.425;  293.221;16652.467; 0.46101
 353.30; 6040.253;  299.069;16923.354; 0.46174
 353.89; 6136.760;  289.556;17199.826; 0.46120
 354.49; 6210.105;  295.537;17471.125; 0.46299
 355.08; 6272.524;  303.789;17648.240; 0.46328
 355.67; 6294.141;  306.509;17850.877; 0.46688
 356.27; 6398.644;  292.678;18013.082; 0.46272
 356.86; 6459.946;  288.376;18230.048; 0.46347
 357.45; 6566.232;  297.756;18507.331; 0.46314
 358.05; 6644.784;  297.214;18684.613; 0.46191
 358.64; 6675.824;  292.504;18894.298; 0.46451
 359.23; 6793.693;  289.300;19081.825; 0.46078
 359.83; 6845.545;  289.121;19433.380; 0.46537
 360.42; 6981.817;  293.174;19722.600; 0.46312
 361.01; 7020.978;  287.355;19981.487; 0.46609
 361.61; 7095.523;  287.502;20183.522; 0.46575
 362.20; 7148.707;  294.987;20496.718; 0.46946
 362.79; 7214.429;  302.910;20634.303; 0.46859
 363.38; 7290.047;  301.613;20815.514; 0.46767
 363.98; 7337.836;  289.171;20943.715; 0.46691
 364.57; 7457.263;  277.744;21176.149; 0.46402
 365.16; 7470.413;  288.573;21351.502; 0.46728
 365.76; 7561.924;  293.720;21537.287; 0.46580
 366.35; 7557.740;  294.920;21731.542; 0.47005
 366.94; 7643.218;  286.459;21913.791; 0.46832
 367.53; 7726.581;  286.426;22067.466; 0.46650
 368.13; 7784.002;  291.994;22246.489; 0.46693
 368.72; 7849.176;  285.482;22413.295; 0.46620
 369.31; 7852.360;  292.281;22597.374; 0.46988
 369.91; 7889.584;  283.382;22746.877; 0.47031
 370.50; 7982.623;  291.699;22820.059; 0.46675
 371.09; 8038.328;  278.017;22946.909; 0.46555
 371.68; 8063.383;  286.967;23106.324; 0.46752
 372.28; 8092.358;  294.984;23340.584; 0.47064
 372.87; 8165.636;  297.367;23443.502; 0.46860
 373.46; 8257.962;  297.723;23614.255; 0.46674
 374.05; 8373.806;  287.889;23758.158; 0.46279
 374.65; 8399.575;  290.440;23950.173; 0.46504
 375.24; 8497.428;  272.918;24146.349; 0.46280
 375.83; 8521.492;  275.848;24331.370; 0.46499
 376.42; 8580.804;  273.516;24515.563; 0.46511
 377.02; 8605.746;  293.907;24527.502; 0.46472
 377.61; 8635.880;  288.112;24762.668; 0.46714
 378.20; 8687.256;  297.747;24944.118; 0.46802
 378.79; 8758.659;  297.015;25086.217; 0.46681
 379.38; 8825.159;  282.191;25204.109; 0.46497
 379.98; 8933.785;  267.243;25344.469; 0.46143
 380.57; 9031.558;  272.112;25606.751; 0.46124
 381.16; 9108.043;  291.609;25727.129; 0.46015
 381.75; 9177.064;  289.589;25767.151; 0.45738
 382.35; 9212.271;  283.703;25937.612; 0.45837
 382.94; 9266.736;  271.231;26182.039; 0.45946
 383.53; 9314.431;  279.541;26558.760; 0.46369
 384.12; 9420.553;  269.432;26865.627; 0.46335
 384.71; 9604.919;  284.069;27028.687; 0.45778
 385.31; 9800.933;  287.699;27353.893; 0.45410
 385.90;10005.890;  299.731;27598.110; 0.44909
 386.49;10057.665;  283.306;27919.987; 0.45140
 387.08;10113.884;  296.763;28085.602; 0.45189
 387.67;10169.927;  302.047;28384.267; 0.45421
 388.26;10283.831;  312.463;28670.094; 0.45392
 388.86;10437.397;  297.866;29041.131; 0.45252
 389.45;10530.868;  285.685;29324.329; 0.45246
 390.04;10718.987;  279.860;29566.863; 0.44801
 390.63;10837.976;  284.795;29878.048; 0.44781
 391.22;11022.225;  294.422;30097.179; 0.44375
 391.81;11070.424;  303.408;30368.117; 0.44596
 392.41;11273.437;  324.211;30517.642; 0.44053
 393.00;11345.745;  349.022;30747.606; 0.44159
 393.59;11526.852;  379.676;31111.212; 0.44042
 394.18;11573.444;  399.780;31505.223; 0.44464
 394.77;11713.149;  433.703;31930.599; 0.44598
 395.36;11866.208;  473.557;32244.356; 0.44540
 395.95;12025.665;  524.323;32561.017; 0.44490
 396.55;12209.668;  566.236;32856.406; 0.44299
 397.14;12342.292;  594.577;33298.717; 0.44465
 397.73;12493.114;  601.786;33627.642; 0.44362
 398.32;12581.414;  612.294;34204.404; 0.44818
 398.91;12723.623;  621.039;34614.988; 0.44852
 399.50;12984.372;  632.059;35200.379; 0.44693
 400.09;13320.540;  605.452;35675.306; 0.44061
 400.68;13532.974;  582.293;36366.134; 0.44139
 401.27;13743.290;  548.561;37014.694; 0.44149
 401.87;13944.328;  525.771;37604.957; 0.44142
 402.46;14313.259;  501.053;38119.893; 0.43514
 403.05;14635.355;  484.389;38675.942; 0.43118
 403.64;14920.930;  490.521;39240.769; 0.42900
 404.23;15227.355;  484.797;39841.080; 0.42644
 404.82;15463.241;  502.588;40438.695; 0.42642
 405.41;15698.889;  491.629;41140.816; 0.42700
 406.00;15882.687;  497.890;41752.976; 0.42839
 406.59;16030.022;  479.966;42383.807; 0.43052
 407.18;16260.898;  482.149;42943.385; 0.42992
 407.77;16502.530;  466.520;43500.038; 0.42871
 408.37;16752.377;  484.641;43973.019; 0.42705
 408.96;16958.840;  491.806;44465.898; 0.42658
 409.55;17112.510;  504.476;44970.283; 0.42771
 410.14;17322.071;  481.626;45459.452; 0.42664
 410.73;17508.401;  490.299;45905.805; 0.42629
 411.32;17696.532;  492.855;46441.730; 0.42665
 411.91;17936.744;  505.687;47060.216; 0.42664
 412.50;18122.385;  480.732;47624.639; 0.42689
 413.09;18295.640;  484.505;48110.411; 0.42715
 413.68;18449.031;  482.467;48573.257; 0.42760
 414.27;18577.359;  487.472;48936.919; 0.42785
 414.86;18727.702;  462.470;49236.309; 0.42656
 415.45;18846.643;  452.555;49687.411; 0.42759
 416.04;19010.146;  462.743;50083.734; 0.42738
 416.63;19190.674;  468.551;50542.275; 0.42725
 417.22;19292.699;  461.867;50754.683; 0.42664
 417.81;19462.752;  462.159;51068.477; 0.42544
 418.40;19595.893;  476.694;51393.675; 0.42539
 418.99;19749.462;  477.832;51737.830; 0.42486
 419.58;19758.780;  462.218;51969.382; 0.42639
 420.17;19825.723;  452.952;52248.392; 0.42710
 420.76;19940.094;  458.593;52499.836; 0.42673
 421.35;20088.364;  472.988;53005.769; 0.42783
 421.94;20121.070;  474.287;53203.501; 0.42876
 422.53;20011.438;  469.601;53402.299; 0.43276
 423.12;20126.839;  471.552;53493.823; 0.43098
 423.71;20195.718;  463.366;53670.857; 0.43079
 424.30;20372.496;  471.573;53819.883; 0.42825
 424.89;20303.439;  477.611;53888.037; 0.43039
 425.48;20290.894;  477.854;53974.356; 0.43137
 426.07;20340.345;  465.438;53940.695; 0.42985
 426.66;20262.038;  460.097;54040.507; 0.43230
 427.25;20182.479;  453.014;53995.096; 0.43358
 427.84;20015.297;  450.549;53912.043; 0.43657
 428.43;20012.003;  452.848;53711.442; 0.43504
 429.02;19919.417;  457.772;53797.552; 0.43787
 429.61;19884.825;  448.720;53826.107; 0.43875
 430.20;19774.740;  425.820;53758.443; 0.44034
 430.79;19791.556;  437.001;53531.580; 0.43827
 431.38;19610.767;  442.471;53315.543; 0.44065
 431.97;19447.866;  451.391;53001.434; 0.44190
 432.55;19210.116;  445.807;52690.011; 0.44471
 433.14;19107.845;  441.412;52704.411; 0.44713
 433.73;18958.981;  432.971;52655.054; 0.45007
 434.32;18920.355;  424.624;52606.263; 0.45045
 434.91;18692.819;  423.161;52233.737; 0.45269
 435.50;18534.254;  418.064;51971.869; 0.45419
 436.09;18237.905;  418.432;51687.970; 0.45896
 436.68;18091.795;  422.559;51624.303; 0.46207
 437.27;17982.493;  439.214;51661.122; 0.46534
 437.86;17900.483;  433.576;51508.561; 0.46599
 438.45;17832.929;  436.794;51330.326; 0.46621
 439.04;17676.575;  419.148;51043.637; 0.46738
 439.62;17502.392;  412.025;51000.963; 0.47130
 440.21;17347.332;  413.441;50885.373; 0.47429
 440.80;17201.841;  430.263;51024.538; 0.47953
 441.39;17088.533;  449.560;51081.161; 0.48330
 441.98;16915.234;  447.874;51020.625; 0.48729
 442.57;16790.612;  436.530;50797.219; 0.48847
 443.16;16629.504;  425.660;50702.578; 0.49175
 443.75;16496.704;  431.481;50788.909; 0.49618
 444.33;16475.501;  435.018;50969.383; 0.49837
 444.92;16425.827;  440.355;50892.685; 0.49916
 445.51;16369.267;  417.614;50850.986; 0.49991
 446.10;16164.299;  410.612;51056.876; 0.50717
 446.69;15985.546;  404.712;51275.545; 0.51388
 447.28;15901.004;  420.929;51457.726; 0.51811
 447.87;15830.284;  412.657;51329.383; 0.51884
 448.45;15780.915;  413.036;51412.748; 0.52095
 449.04;15590.087;  390.874;51445.980; 0.52622
 449.63;15503.666;  386.972;51646.289; 0.53032
 450.22;15387.476;  381.501;51835.467; 0.53515
 450.81;15349.221;  386.090;52100.884; 0.53859
 451.40;15227.998;  391.666;52058.120; 0.54188
 451.98;15133.459;  398.229;52052.065; 0.54475
 452.57;15080.170;  403.856;52211.469; 0.54778
 453.16;15007.732;  401.626;52273.023; 0.55039
 453.75;14900.705;  391.994;52359.708; 0.55410
 454.34;14746.568;  388.814;52215.013; 0.55746
 454.93;14655.498;  395.232;52494.699; 0.56271
 455.51;14566.937;  391.805;52615.216; 0.56634
 456.10;14572.752;  402.670;52907.445; 0.56883
 456.69;14385.312;  396.116;53041.712; 0.57557
 457.28;14307.126;  403.304;53288.203; 0.58020
 457.87;14116.870;  395.902;53216.666; 0.58542
 458.45;14069.695;  396.108;53304.691; 0.58764
 459.04;13977.867;  388.965;53401.373; 0.59119
 459.63;13916.851;  395.666;53676.141; 0.59555
 460.22;13845.107;  396.420;53639.128; 0.59758
 460.80;13778.577;  400.600;53692.823; 0.60027
 461.39;13686.354;  392.483;53895.895; 0.60473
 461.98;13668.406;  393.792;54364.115; 0.60913
 462.57;13683.356;  398.874;54782.941; 0.61213
 463.16;13742.580;  397.668;55197.607; 0.61346
 463.74;13755.189;  387.726;55673.212; 0.61656
 464.33;13772.804;  376.102;56213.777; 0.61993
 464.92;13764.138;  370.427;56547.398; 0.62266
 465.51;13788.741;  357.831;56911.710; 0.62436
 466.09;13778.732;  358.204;57352.888; 0.62806
 466.68;13793.444;  361.518;57898.436; 0.63181
 467.27;13753.633;  372.331;58292.638; 0.63633
 467.86;13714.389;  368.243;58560.733; 0.63951
 468.44;13641.543;  363.094;58919.922; 0.64443
 469.03;13700.758;  361.882;59322.152; 0.64544
 469.62;13710.185;  367.807;59788.037; 0.64870
 470.20;13797.044;  365.300;60231.337; 0.64905
 470.79;13779.246;  374.762;60677.863; 0.65309
 471.38;13764.196;  358.816;61146.166; 0.65653
 471.97;13771.338;  359.020;61564.389; 0.65929
 472.55;13751.587;  350.111;61933.679; 0.66231
 473.14;13821.471;  362.234;62406.602; 0.66368
 473.73;13861.588;  355.473;62971.535; 0.66616
 474.31;13832.327;  347.428;63489.444; 0.67047
 474.90;13887.980;  350.797;63899.238; 0.67158
 475.49;13853.033;  352.737;64160.914; 0.67453
 476.07;13884.217;  357.870;64473.326; 0.67578
 476.66;13899.554;  347.892;64752.829; 0.67693
 477.25;13866.892;  340.581;65000.332; 0.67945
 477.84;13933.051;  352.761;65155.193; 0.67868
 478.42;13854.420;  344.733;65155.945; 0.68100
 479.01;13812.806;  344.681;65156.001; 0.68234
 479.60;13705.616;  330.210;65156.511; 0.68544
 480.18;13621.913;  334.265;65158.257; 0.68829
 480.77;13616.389;  342.135;65159.480; 0.68868
 481.35;13597.289;  347.900;65159.373; 0.68946
 481.94;13623.449;  344.738;65159.188; 0.68852
 482.53;13594.469;  335.059;65159.923; 0.68922
 483.11;13515.203;  332.000;65160.709; 0.69175
 483.70;13429.480;  318.067;65161.719; 0.69422
 484.29;13360.645;  316.585;65163.324; 0.69648
 484.87;13365.116;  306.461;65164.542; 0.69607
 485.46;13370.864;  315.710;65164.272; 0.69612
 486.05;13346.268;  319.958;65162.920; 0.69704
 486.63;13273.650;  321.237;65162.258; 0.69950
 487.22;13112.924;  317.302;65162.909; 0.70482
 487.81;12998.620;  323.288;65164.368; 0.70889
 488.39;12908.386;  331.856;65164.474; 0.71223
 488.98;12876.028;  337.207;65163.733; 0.71350
 489.56;12786.352;  317.228;65164.794; 0.71606
 490.15;12693.158;  310.772;65166.371; 0.71914
 490.74;12586.503;  302.771;65167.454; 0.72268
 491.32;12487.358;  305.937;65168.774; 0.72630
 491.91;12302.868;  316.111;64974.057; 0.73192
 492.49;12116.485;  317.823;64712.314; 0.73702
 493.08;11919.027;  332.939;64167.133; 0.74112
 493.67;11846.463;  325.500;63724.219; 0.74059
 494.25;11753.717;  343.920;63105.848; 0.74042
 494.84;11635.251;  335.724;62474.087; 0.74030
 495.42;11402.923;  338.386;61959.759; 0.74580
 496.01;11212.442;  319.873;61399.648; 0.74877
 496.59;11109.210;  310.443;60754.114; 0.74798
 497.18;11021.551;  311.106;60078.479; 0.74666
 497.77;10854.273;  311.733;59331.632; 0.74805
 498.35;10717.049;  326.966;58841.796; 0.75065
 498.94;10600.176;  324.499;58030.218; 0.74941
 499.52;10514.768;  324.914;57567.186; 0.74955
 500.11;10322.089;  311.275;56906.600; 0.75231
 500.69;10250.759;  304.601;56449.246; 0.75165
 501.28;10199.212;  315.149;55764.708; 0.74896
 501.86;10164.407;  317.653;55155.772; 0.74579
 502.45;10071.823;  338.264;54632.693; 0.74648
 503.03; 9929.811;  328.939;54106.656; 0.74829
 503.62; 9887.682;  339.385;53665.090; 0.74701
 504.20; 9855.857;  326.215;53123.968; 0.74354
 504.79; 9817.315;  326.766;52666.148; 0.74154
 505.37; 9750.816;  326.582;52358.543; 0.74202
 505.96; 9756.117;  332.269;51859.105; 0.73781
 506.55; 9881.702;  327.706;51491.158; 0.72877
 507.13;10014.619;  315.837;51254.709; 0.72033
 507.72;10027.186;  312.954;51138.387; 0.71867
 508.30;10109.193;  319.265;50944.634; 0.71359
 508.89;10130.004;  316.460;50626.145; 0.70983
 509.47;10225.210;  308.593;50383.056; 0.70325
 510.05;10262.091;  311.037;50305.214; 0.70105
 510.64;10356.462;  312.992;50205.541; 0.69615
 511.22;10480.482;  326.961;50242.492; 0.69162
 511.81;10642.580;  323.186;50282.527; 0.68496
 512.39;10845.016;  329.747;50266.280; 0.67660
 512.98;11031.125;  310.647;50213.110; 0.66791
 513.56;11165.511;  306.947;50200.284; 0.66227
 514.15;11344.987;  297.484;50225.841; 0.65508
 514.73;11547.830;  293.306;50310.339; 0.64779
 515.32;11802.891;  298.909;50412.714; 0.63911
 515.90;12003.902;  306.909;50529.464; 0.63282
 516.49;12203.603;  321.223;50576.262; 0.62628
 517.07;12354.421;  323.415;50501.804; 0.62021
 517.66;12500.847;  325.663;50468.951; 0.61474
 518.24;12639.685;  330.491;50581.443; 0.61091
 518.82;12781.381;  322.791;50433.118; 0.60446
 519.41;12988.405;  321.449;50483.238; 0.59770
 519.99;13288.641;  304.901;50520.942; 0.58744
 520.58;13605.176;  313.039;50964.514; 0.58100
 521.16;13884.736;  316.114;51139.212; 0.57353
 521.75;14176.240;  315.579;51354.849; 0.56612
 522.33;14528.114;  314.722;51552.832; 0.55690
 522.91;14854.580;  303.280;51724.449; 0.54824
 523.50;15084.868;  304.661;51708.091; 0.54131
 524.08;15327.248;  292.957;51816.521; 0.53492
 524.67;15609.845;  296.699;52029.160; 0.52870
 525.25;15855.648;  294.898;52244.306; 0.52355
 525.83;16088.685;  300.195;52281.679; 0.51751
 526.42;16362.949;  299.604;52255.985; 0.50980
 527.00;16632.157;  297.414;52315.968; 0.50305
 527.59;16921.507;  293.742;52194.390; 0.49434
 528.17;17235.217;  296.702;52169.461; 0.48606
 528.75;17625.183;  314.407;52237.781; 0.47705
 529.34;17800.957;  317.963;52410.206; 0.47416
 529.92;17924.486;  322.096;52599.701; 0.47274
 530.50;18060.823;  308.099;52577.086; 0.46898
 531.09;18396.981;  310.277;52580.588; 0.46090
 531.67;18639.880;  319.699;52493.409; 0.45452
 532.25;18820.031;  331.224;52474.618; 0.45029
 532.84;18923.345;  319.265;52286.406; 0.44612
 533.42;19081.702;  303.579;52069.121; 0.44039
 534.00;19166.563;  296.379;51800.283; 0.43606
 534.59;19310.680;  306.923;51692.027; 0.43200
 535.17;19506.550;  307.396;51484.292; 0.42579
 535.75;19719.135;  311.833;51399.345; 0.42035
 536.34;19913.127;  327.170;51106.314; 0.41374
 536.92;19967.922;  323.362;50970.357; 0.41131
 537.50;20058.527;  320.767;50555.361; 0.40571
 538.09;20148.733;  304.234;50224.272; 0.40063
 538.67;20395.986;  307.957;49849.711; 0.39203
 539.25;20471.260;  292.004;49517.578; 0.38729
 539.84;20609.912;  298.382;49195.084; 0.38154
 540.42;20612.706;  287.620;48747.408; 0.37735
 541.00;20763.276;  304.712;48328.615; 0.37058
 541.59;20797.193;  293.453;47996.146; 0.36671
 542.17;20837.945;  303.713;47681.974; 0.36310
 542.75;20876.316;  301.687;47449.085; 0.36013
 543.33;20880.732;  321.928;47035.436; 0.35644
 543.92;20934.188;  322.791;46647.473; 0.35171
 544.50;21082.681;  319.637;46212.001; 0.34445
 545.08;21294.010;  303.653;45900.067; 0.33691
 545.67;21361.410;  304.594;45544.519; 0.33213
 546.25;21319.484;  306.855;45243.598; 0.33012
 546.83;21325.756;  305.919;44881.223; 0.32646
 547.41;21410.491;  307.185;44485.963; 0.32086
 548.00;21493.958;  304.048;44073.416; 0.31504
 548.58;21409.799;  293.554;43651.340; 0.31245
 549.16;21430.768;  273.252;43462.973; 0.30992
 549.74;21513.132;  276.221;43125.006; 0.30485
 550.33;21666.366;  287.338;42789.017; 0.29842
 550.91;21733.863;  287.502;42328.145; 0.29232
 551.49;21782.900;  275.114;42084.067; 0.28867
 552.07;21835.823;  281.527;41894.675; 0.28570
 552.66;22036.648;  296.715;41696.915; 0.27974
 553.24;22206.495;  301.874;41407.799; 0.27337
 553.82;22352.336;  287.046;41262.389; 0.26881
 554.40;22375.553;  287.502;41018.645; 0.26577
 554.98;22351.867;  286.839;40927.197; 0.26525
 555.57;22507.184;  295.511;40724.442; 0.26011
 556.15;22611.572;  295.794;40729.857; 0.25814
 556.73;22805.505;  289.872;40584.856; 0.25277
 557.31;22877.639;  280.087;40487.094; 0.25024
 557.89;23060.055;  267.680;40402.230; 0.24573
 558.48;23242.339;  270.725;40389.487; 0.24216
 559.06;23311.456;  269.279;40492.969; 0.24196
 559.64;23489.890;  288.172;40421.363; 0.23798
 560.22;23612.107;  308.276;40298.501; 0.23453
 560.80;23945.311;  311.749;40155.433; 0.22683
 561.39;24136.904;  300.174;40123.139; 0.22289
 561.97;24228.832;  304.256;40118.465; 0.22119
 562.55;24376.899;  305.864;40159.584; 0.21897
 563.13;24516.780;  307.652;40244.814; 0.21740
 563.71;24887.426;  295.320;40343.674; 0.21179
 564.29;25029.075;  296.315;40286.513; 0.20868
 564.88;25242.567;  280.495;40218.374; 0.20410
 565.46;25275.491;  277.260;40267.767; 0.20405
 566.04;25428.955;  269.464;40338.574; 0.20211
 566.62;25601.246;  292.162;40520.457; 0.20126
 567.20;25850.141;  292.265;40647.678; 0.19838
 567.78;26078.233;  300.170;40851.754; 0.19676
 568.36;26279.900;  300.837;41002.754; 0.19499
 568.94;26357.951;  296.460;41004.189; 0.19368
 569.53;26583.599;  295.816;41099.192; 0.19094
 570.11;26712.519;  283.902;41113.488; 0.18890
 570.69;26964.227;  278.869;41248.245; 0.18619
 571.27;27079.909;  279.854;41227.262; 0.18409
 571.85;27334.182;  279.584;41295.220; 0.18071
 572.43;27599.376;  299.078;41479.213; 0.17852
 573.01;27757.269;  288.199;41566.526; 0.17688
 573.59;27800.854;  284.931;41522.011; 0.17570
 574.17;27896.671;  270.419;41423.650; 0.17308
 574.76;28133.244;  278.826;41529.098; 0.17053
 575.34;28408.149;  274.920;41725.997; 0.16832
 575.92;28600.970;  271.771;41808.186; 0.16619
 576.50;28778.336;  265.398;41828.507; 0.16367
 577.08;28872.863;  261.206;41866.048; 0.16260
 577.66;28993.321;  250.776;41875.013; 0.16082
 578.24;29099.366;  252.747;41879.155; 0.15927
 578.82;29229.165;  257.942;41897.583; 0.15754
 579.40;29435.462;  266.978;41903.210; 0.15456
 579.98;29506.207;  273.567;41841.961; 0.15290
 580.56;29639.585;  281.852;41853.319; 0.15107
 581.14;29733.110;  291.659;41917.834; 0.15041
 581.72;29899.826;  280.280;42082.244; 0.14962
 582.30;30024.636;  273.151;42074.467; 0.14768
 582.88;30194.468;  274.650;42152.288; 0.14602
 583.46;30393.742;  282.363;42189.821; 0.14356
 584.04;30684.802;  282.956;42171.457; 0.13919
 584.62;30784.282;  265.125;42197.830; 0.13798
 585.21;30817.486;  267.265;42241.428; 0.13797
 585.79;30728.007;  273.754;42392.009; 0.14082
 586.37;30861.642;  277.118;42415.309; 0.13917
 586.95;31031.934;  275.522;42455.787; 0.13717
 587.53;31302.165;  269.979;42469.819; 0.13350
 588.11;31434.356;  278.442;42585.262; 0.13287
 588.69;31541.051;  282.733;42557.865; 0.13112
 589.27;31728.356;  283.424;42506.477; 0.12800
 589.85;31842.428;  276.026;42443.602; 0.12575
 590.43;31987.076;  271.715;42599.939; 0.12536
 591.01;31950.373;  278.076;42722.853; 0.12714
 591.59;32070.815;  288.299;42936.945; 0.12772
 592.16;32141.190;  287.924;42891.657; 0.12629
 592.74;32316.175;  291.617;42886.045; 0.12387
 593.32;32307.285;  293.193;42739.948; 0.12250
 593.90;32478.591;  297.895;42708.966; 0.11988
 594.48;32474.369;  288.777;42603.037; 0.11883
 595.06;32610.555;  285.245;42684.475; 0.11782
 595.64;32666.359;  272.769;42709.242; 0.11728
 596.22;32706.574;  276.890;42757.472; 0.11725
 596.80;32791.334;  268.138;42505.619; 0.11350
 597.38;32836.900;  264.245;42457.558; 0.11239
 597.96;32953.273;  262.869;42299.911; 0.10921
 598.54;32880.753;  268.057;42320.734; 0.11041
 599.12;32773.382;  272.769;42174.074; 0.11034
 599.70;32663.320;  272.156;42133.628; 0.11139
 600.28;32605.956;  269.178;41999.881; 0.11076
 600.86;32683.910;  273.568;41898.236; 0.10867
 601.44;32642.680;  279.130;41816.989; 0.10839
 602.02;32658.674;  273.135;41601.984; 0.10590
 602.59;32650.132;  269.019;41487.164; 0.10480
 603.17;32580.704;  254.435;41427.991; 0.10506
 603.75;32580.189;  264.600;41407.036; 0.10488
 604.33;32464.237;  268.544;41269.041; 0.10499
 604.91;32435.870;  272.574;41056.648; 0.10313
 605.49;32381.239;  271.546;40985.067; 0.10310
 606.07;32355.908;  254.900;40828.877; 0.10173
 606.65;32461.721;  260.422;40696.701; 0.09890
 607.23;32396.342;  264.441;40448.820; 0.09712
 607.80;32291.619;  277.156;40221.379; 0.09611
 608.38;32129.544;  277.256;40025.464; 0.09618
 608.96;32007.357;  285.786;39921.000; 0.09673
 609.54;31810.877;  288.246;39743.725; 0.09748
 610.12;31604.194;  283.928;39528.375; 0.09795
 610.70;31511.560;  273.259;39095.265; 0.09439
 611.28;31288.966;  259.195;38813.390; 0.09429
 611.85;31159.297;  265.841;38433.913; 0.09183
 612.43;30882.763;  260.695;38304.961; 0.09425
 613.01;30772.595;  263.202;38019.161; 0.09255
 613.59;30609.504;  249.299;37795.112; 0.09226
 614.17;30442.879;  240.914;37668.085; 0.09315
 614.75;30295.346;  222.778;37521.205; 0.09352
 615.32;30090.523;  209.277;37291.775; 0.09377
 615.90;29983.044;  219.080;36866.572; 0.09035
 616.48;29770.833;  232.952;36658.988; 0.09103
 617.06;29554.632;  255.157;36308.488; 0.09009
 617.64;29282.646;  246.140;36072.812; 0.09126
 618.22;29079.731;  241.049;35666.522; 0.08934
 618.79;28934.588;  228.178;35515.632; 0.08964
 619.37;28785.993;  227.104;35180.352; 0.08775
 619.95;28532.737;  231.387;34894.600; 0.08806
 620.53;28253.928;  218.869;34491.494; 0.08725
 621.11;27907.575;  206.529;34156.975; 0.08835
 621.68;27839.985;  201.116;33920.700; 0.08636
 622.26;27821.609;  202.843;33803.106; 0.08514
 622.84;27828.861;  212.594;33643.042; 0.08298
 623.42;27620.911;  214.208;33340.072; 0.08231
 623.99;27486.990;  232.130;33128.823; 0.08171
 624.57;27223.419;  239.695;32874.211; 0.08258
 625.15;27073.530;  249.244;32723.283; 0.08301
 625.73;26699.372;  235.066;32483.448; 0.08585
 626.30;26567.335;  228.444;32290.122; 0.08539
 626.88;26387.089;  228.031;32032.596; 0.08487
 627.46;26327.711;  230.061;31766.787; 0.08222
 628.04;26177.326;  242.419;31549.234; 0.08175
 628.61;26057.848;  241.899;31249.103; 0.07957
 629.19;25790.949;  244.829;31015.066; 0.08081
 629.77;25588.951;  231.831;30736.758; 0.08027
 630.35;25375.876;  234.217;30562.869; 0.08146
 630.92;25286.323;  232.092;30375.921; 0.08032
 631.50;25189.643;  220.757;30199.145; 0.07941
 632.08;25051.875;  206.521;29949.680; 0.07814
 632.66;24877.270;  196.801;29744.460; 0.07817
 633.23;24562.620;  216.776;29426.430; 0.07910
 633.81;24339.503;  225.566;29138.020; 0.07882
 634.39;24145.456;  220.298;28844.754; 0.07788
 634.96;24049.136;  221.956;28624.791; 0.07629
 635.54;24004.055;  216.680;28606.896; 0.07682
 636.12;23813.972;  214.735;28334.976; 0.07612
 636.69;23722.191;  204.526;28222.591; 0.07604
 637.27;23439.664;  199.403;27913.834; 0.07646
 637.85;23372.521;  217.219;27696.062; 0.07435
 638.42;23109.787;  206.286;27392.989; 0.07445
 639.00;22930.689;  223.367;27259.457; 0.07578
 639.58;22583.255;  209.789;26981.612; 0.07794
 640.15;22387.857;  222.891;26790.445; 0.07868
 640.73;22323.296;  204.119;26492.226; 0.07499
 641.31;22270.736;  216.013;26471.006; 0.07571
 641.88;22232.510;  210.908;26285.787; 0.07337
 642.46;22082.949;  226.803;26132.901; 0.07383
 643.04;21956.389;  214.697;25934.349; 0.07297
 643.61;21792.163;  223.925;25817.463; 0.07432
 644.19;21642.602;  209.153;25659.577; 0.07460
 644.77;21464.376;  224.048;25468.358; 0.07500
 645.34;21339.149;  211.943;25293.805; 0.07452
 645.92;21160.589;  214.504;25070.586; 0.07433
 646.49;21049.695;  218.399;24938.033; 0.07433
 647.07;20882.135;  220.293;24745.814; 0.07445
 647.65;20786.242;  224.188;24564.928; 0.07327
 648.22;20759.682;  218.082;24391.042; 0.07070
 648.80;20687.122;  227.310;24368.156; 0.07185
 649.37;20619.228;  227.872;24339.937; 0.07279
 649.95;20446.335;  227.433;24242.051; 0.07472
 650.53;20411.108;  209.328;24121.165; 0.07322
 651.10;20290.548;  214.222;24054.279; 0.07462
 651.68;20292.321;  211.450;24020.060; 0.07395
 652.25;20269.094;  221.012;23899.174; 0.07228
 652.83;20197.201;  211.573;23700.955; 0.07015
 653.41;20080.307;  208.468;23524.069; 0.06941
 653.98;20014.081;  212.362;23340.850; 0.06744
 654.56;19950.521;  211.590;23307.630; 0.06821
 655.13;19928.294;  208.818;23285.744; 0.06828
 655.71;19738.400;  207.379;23284.525; 0.07246
 656.28;19649.174;  194.941;23185.639; 0.07254
 656.86;19609.947;  188.169;22962.753; 0.06916
 657.43;19544.387;  190.397;22872.868; 0.06892
 658.01;19624.160;  212.958;22793.315; 0.06568
 658.58;19554.600;  207.519;22876.096; 0.06881
 659.16;19617.373;  211.747;22798.876; 0.06593
 659.74;19511.146;  196.309;22777.324; 0.06785
 660.31;19428.586;  204.203;22714.438; 0.06853
 660.89;19395.693;  198.098;22687.885; 0.06874
 661.46;19388.133;  206.659;22545.999; 0.06619
 662.04;19413.572;  208.554;22516.780; 0.06505
 662.61;19368.012;  207.448;22500.894; 0.06577
 663.19;19354.786;  206.676;22626.342; 0.06850
 663.76;19351.559;  209.571;22600.456; 0.06808
 664.34;19397.665;  211.132;22526.237; 0.06560
 664.91;19372.439;  214.027;22413.684; 0.06399
 665.49;19369.212;  216.922;22441.798; 0.06462
 666.06;19392.652;  213.150;22513.246; 0.06547
 666.64;19481.092;  212.044;22555.693; 0.06429
 667.21;19536.198;  216.606;22500.140; 0.06199
 667.79;19476.971;  204.167;22400.588; 0.06134
 668.36;19391.411;  201.395;22402.702; 0.06330
 668.93;19332.518;  202.290;22421.149; 0.06500
 669.51;19294.291;  198.184;22426.263; 0.06596
 670.08;19324.064;  192.412;22387.044; 0.06450
 670.66;19371.171;  189.307;22273.825; 0.06120
 671.23;19384.277;  213.201;22361.606; 0.06270
 671.81;19331.384;  219.763;22403.720; 0.06474
 672.38;19315.490;  224.324;22501.167; 0.06702
 672.96;19360.597;  213.552;22510.281; 0.06614
 673.53;19389.704;  213.113;22482.395; 0.06493
 674.10;19411.810;  213.008;22524.843; 0.06526
 674.68;19461.250;  228.236;22505.290; 0.06381
 675.25;19513.357;  221.131;22417.404; 0.06090
 675.83;19508.463;  215.692;22370.185; 0.06007
 676.40;19451.903;  203.253;22300.299; 0.05993
 676.98;19419.676;  209.148;22323.413; 0.06113
 677.55;19279.783;  210.043;22281.527; 0.06349
 678.12;19238.556;  223.937;22260.975; 0.06407
 678.70;19234.663;  221.832;22236.089; 0.06366
 679.27;19295.103;  229.060;22163.870; 0.06087
 679.85;19234.876;  216.621;22124.984; 0.06144
 680.42;19154.982;  216.516;22133.431; 0.06343
 680.99;19100.422;  192.744;22099.212; 0.06393
 681.57;19124.529;  198.305;22028.659; 0.06200
 682.14;19064.969;  205.866;21848.773; 0.05979
 682.71;19013.075;  210.761;21795.554; 0.05994
 683.29;18875.848;  200.656;21706.668; 0.06129
 683.86;18769.288;  185.884;21546.116; 0.06048
 684.43;18591.395;  198.112;21362.230; 0.06094
 685.01;18537.835;  197.006;21197.011; 0.05880
 685.58;18557.275;  206.234;21272.458; 0.05993
 686.16;18602.715;  206.462;21269.239; 0.05879
 686.73;18571.488;  215.023;21397.686; 0.06219
 687.30;18429.928;  207.585;21388.467; 0.06534
 687.88;18482.368;  217.479;21321.914; 0.06276
 688.45;18428.141;  210.707;21118.362; 0.05982
 689.02;18442.247;  213.602;21022.142; 0.05749
 689.60;18292.021;  190.497;20889.257; 0.05823
 690.17;18255.127;  199.391;20926.704; 0.05993
 690.74;18215.900;  189.619;20805.485; 0.05830
 691.31;18191.674;  204.181;20824.932; 0.05933
 691.89;18184.113;  191.742;20754.713; 0.05800
 692.46;18113.220;  212.637;20700.494; 0.05863
 693.03;18105.327;  229.198;20611.941; 0.05699
 693.61;17993.100;  234.759;20426.722; 0.05578
 694.18;17886.873;  237.320;20424.503; 0.05834
 694.75;17873.980;  206.882;20414.950; 0.05836
 695.32;17871.419;  208.110;20458.064; 0.05935
 695.90;17867.526;  203.004;20312.512; 0.05630
 696.47;17732.633;  203.899;20210.626; 0.05743
 697.04;17633.406;  214.460;20060.073; 0.05664
 697.62;17597.846;  213.355;20039.187; 0.05707
 698.19;17589.286;  229.250;19951.301; 0.05540
 698.76;17547.392;  211.144;19960.082; 0.05659
 699.33;17533.165;  210.706;19883.196; 0.05525
 699.91;17379.605;  196.600;19795.977; 0.05714
 700.48;17306.045;  206.162;19674.091; 0.05633
 701.05;17171.152;  208.056;19645.538; 0.05913
 701.62;17144.925;  232.951;19536.652; 0.05745
 702.20;17073.698;  235.179;19463.767; 0.05764
 702.77;17003.805;  232.073;19314.881; 0.05606
 703.34;16939.911;  217.301;19303.995; 0.05743
 703.91;16865.351;  214.196;19161.775; 0.05611
 704.48;16876.791;  220.091;19054.223; 0.05336
 705.06;16874.564;  212.652;18964.004; 0.05131
 705.63;16846.337;  221.213;18940.118; 0.05152
 706.20;16847.777;  214.441;18934.565; 0.05133
 706.77;16741.217;  221.336;18864.679; 0.05252
 707.34;16678.990;  215.564;18821.793; 0.05314
 707.92;16514.764;  205.792;18710.907; 0.05487
 708.49;16443.204;  193.353;18575.022; 0.05354
 709.06;16373.977;  193.248;18466.136; 0.05281
 709.63;16396.083;  194.476;18431.916; 0.05141
 710.20;16392.523;  191.037;18446.697; 0.05184
 710.77;16352.963;  187.932;18338.145; 0.05031
 711.35;16389.070;  185.826;18305.592; 0.04855
 711.92;16399.176;  205.721;18271.706; 0.04752
 712.49;16472.950;  207.616;18372.487; 0.04797
 713.06;16362.723;  215.844;18405.934; 0.05175
 713.63;16342.829;  209.405;18498.382; 0.05446
 714.20;16322.936;  212.300;18556.829; 0.05639
 714.78;16381.376;  209.528;18487.277; 0.05316
 715.35;16369.149;  205.756;18407.724; 0.05159
 715.92;16404.256;  207.317;18351.838; 0.04931
 716.49;16370.362;  222.545;18343.285; 0.05006
 717.06;16366.469;  226.106;18273.400; 0.04850
 717.63;16228.242;  217.334;18198.847; 0.05041
 718.20;16166.015;  210.895;18175.294; 0.05151
 718.77;16177.455;  224.790;18170.075; 0.05112
 719.35;16203.895;  226.351;18153.189; 0.04999
 719.92;16154.668;  211.913;18038.303; 0.04850
 720.49;16029.775;  197.474;17879.084; 0.04798
 721.06;15952.215;  177.369;17774.532; 0.04748
 721.63;15911.988;  190.930;17799.979; 0.04925
 722.20;15891.094;  195.825;17861.426; 0.05136
 722.77;15930.534;  203.386;17825.540; 0.04941
 723.34;15852.974;  196.947;17821.321; 0.05143
 723.91;15871.081;  205.509;17813.102; 0.05075
 724.48;15844.854;  222.070;17777.883; 0.05066
 725.05;15844.294;  212.964;17617.997; 0.04668
 725.62;15752.734;  195.192;17490.778; 0.04599
 726.20;15652.174;  186.754;17461.892; 0.04806
 726.77;15687.947;  192.982;17446.339; 0.04668
 727.34;15706.720;  199.210;17412.787; 0.04533
 727.91;15739.160;  209.104;17361.567; 0.04315
 728.48;15714.933;  214.999;17354.015; 0.04366
 729.05;15640.706;  215.560;17353.795; 0.04574
 729.62;15596.480;  192.788;17320.910; 0.04608
 730.19;15515.919;  185.683;17297.024; 0.04774
 730.76;15571.693;  188.578;17324.138; 0.04685
 731.33;15623.133;  211.472;17306.252; 0.04501
 731.90;15620.572;  215.034;17274.033; 0.04428
 732.47;15541.679;  206.261;17242.147; 0.04567
 733.04;15464.119;  191.156;17245.594; 0.04791
 733.61;15394.225;  168.051;17256.042; 0.05010
 734.18;15418.665;  173.945;17191.156; 0.04777
 734.75;15299.439;  184.507;17077.270; 0.04829
 735.32;15277.878;  211.401;16955.384; 0.04585
 735.89;15193.318;  203.963;16851.831; 0.04558
 736.46;15146.425;  212.191;16734.945; 0.04390
 737.03;15025.531;  203.085;16674.393; 0.04581
 737.60;14899.971;  203.647;16580.840; 0.04703
 738.17;14958.411;  173.208;16558.621; 0.04463
 738.74;14980.851;  184.103;16523.735; 0.04308
 739.31;14877.958;  185.331;16430.849; 0.04363
 739.88;14767.064;  195.225;16300.630; 0.04346
 740.45;14664.171;  176.120;16234.411; 0.04469
 741.02;14734.277;  174.348;16293.858; 0.04419
 741.59;14706.051;  171.909;16337.305; 0.04620
 742.15;14768.824;  177.804;16325.753; 0.04403
 742.72;14743.264;  185.365;16376.867; 0.04619
 743.29;14714.037;  187.593;16351.648; 0.04639
 743.86;14714.477;  195.154;16298.095; 0.04496
 744.43;14725.917;  197.049;16220.543; 0.04253
 745.00;14757.357;  201.277;16240.323; 0.04213
 745.57;14756.463;  209.172;16261.771; 0.04276
 746.14;14735.903;  201.733;16198.552; 0.04164
 746.71;14668.010;  208.294;16179.666; 0.04318
 747.28;14663.783;  196.522;16170.446; 0.04303
 747.85;14684.889;  172.417;16124.227; 0.04107
 748.42;14673.329;  173.645;16103.675; 0.04086
 748.98;14654.436;  177.206;16075.455; 0.04066
 749.55;14557.209;  197.767;16011.569; 0.04190
 750.12;14558.316;  197.662;16015.683; 0.04198
 750.69;14524.422;  204.890;15955.131; 0.04136
 751.26;14529.862;  216.118;15910.245; 0.03998
 751.83;14477.302;  206.013;15821.026; 0.03908
 752.40;14335.409;  204.907;15769.807; 0.04199
 752.97;14281.515;  192.802;15780.587; 0.04391
 753.53;14225.288;  195.697;15773.035; 0.04545
 754.10;14314.062;  187.925;15706.815; 0.04084
 754.67;14299.835;  185.486;15666.263; 0.04013
 755.24;14283.608;  192.714;15616.044; 0.03924
 755.81;14142.715;  200.608;15583.491; 0.04271
 756.38;14071.821;  223.503;15510.272; 0.04292
 756.94;14045.594;  215.064;15482.386; 0.04292
 757.51;14034.368;  204.292;15502.833; 0.04383
 758.08;13996.474;  196.520;15545.281; 0.04620
 758.65;13889.914;  213.748;15443.728; 0.04673
 759.22;13786.687;  220.643;15351.176; 0.04740
 759.79;13644.127;  205.538;15180.623; 0.04702
 760.35;13560.567;  191.432;15130.404; 0.04822
 760.92;13508.340;  201.994;14987.518; 0.04578
 761.49;13487.780;  208.555;14849.965; 0.04241
 762.06;13433.553;  211.783;14641.079; 0.03796
 762.63;13338.993;  201.011;14500.527; 0.03679
 763.19;13224.100;  203.239;14469.641; 0.03967
 763.76;13101.540;  215.133;14423.422; 0.04241
 764.33;12939.980;  219.695;14294.202; 0.04394
 764.90;12857.419;  218.589;14107.650; 0.04097
 765.46;12766.193;  197.817;13914.097; 0.03796
 766.03;12684.633;  196.045;13749.878; 0.03555
 766.60;12570.072;  197.940;13624.992; 0.03554
 767.17;12358.512;  205.501;13465.773; 0.03787
 767.73;12184.619;  207.063;13413.220; 0.04241
 768.30;11978.392;  206.624;13205.001; 0.04305
 768.87;11885.165;  215.185;13045.782; 0.04118
 769.44;11770.605;  213.413;12836.229; 0.03830
 770.00;11571.712;  215.975;12686.677; 0.04068
 770.57;11360.818;  216.536;12525.791; 0.04318
 771.14;11146.592;  213.430;12350.238; 0.04536
 771.71;10941.365;  198.325;12122.686; 0.04531
 772.27;10779.471;  206.220;11935.800; 0.04507
 772.84;10635.911;  209.448;11715.914; 0.04280
 773.41;10515.018;  213.676;11595.695; 0.04333
 773.97;10398.458;  205.904;11440.809; 0.04229
 774.54;10251.231;  213.798;11314.923; 0.04374
 775.11;10171.671;  232.360;11227.370; 0.04384
 775.67;10016.777;  228.588;11074.818; 0.04458
 776.24; 9897.217;  222.482;10902.265; 0.04292
 776.81; 9758.991;  220.377;10665.712; 0.03944
 777.38; 9602.764;  208.272;10484.160; 0.03895
 777.94; 9506.204;  214.166;10350.941; 0.03779
 778.51; 9377.644;  199.728;10214.721; 0.03791
 779.08; 9307.083;  210.622;10137.835; 0.03795
 779.64; 9185.523;  201.517;10058.283; 0.04026
 780.21; 9059.963;  202.745; 9970.064; 0.04248
 780.78; 8979.070;  211.639; 9870.178; 0.04204
 781.34; 8894.843;  212.534; 9787.625; 0.04251
 781.91; 8875.616;  225.762; 9703.406; 0.03969
 782.47; 8811.723;  227.990; 9633.520; 0.03971
 783.04; 8725.496;  238.551; 9482.634; 0.03711
 783.61; 8645.269;  245.779; 9385.415; 0.03668
 784.17; 8614.376;  246.674; 9320.196; 0.03517
 784.74; 8586.816;  236.569; 9240.310; 0.03272
 785.31; 8500.922;  244.797; 9256.090; 0.03801
 785.87; 8406.695;  248.691; 9137.538; 0.03726
 786.44; 8324.135;  252.252; 9126.319; 0.04115
 787.00; 8349.909;  239.480; 9065.766; 0.03673
 787.57; 8257.348;  222.375; 9005.880; 0.03868
 788.14; 8239.122;  242.936; 8941.661; 0.03657
 788.70; 8164.895;  252.831; 8828.442; 0.03498
 789.27; 8187.001;  261.392; 8880.222; 0.03642
 789.83; 8131.775;  247.620; 8836.003; 0.03716
 790.40; 8070.215;  230.182; 8838.117; 0.04058
 790.96; 8061.321;  235.076; 8799.898; 0.03916
 791.53; 8030.428;  229.304; 8766.679; 0.03917
 792.10; 8013.534;  224.866; 8777.126; 0.04062
 792.66; 7973.307;  219.094; 8720.574; 0.03996
 793.23; 7925.747;  214.988; 8733.688; 0.04328
 793.79; 7939.854;  216.216; 8675.468; 0.03951
 794.36; 7877.627;  210.777; 8660.249; 0.04221
 794.92; 7897.400;  219.339; 8606.363; 0.03836
 795.49; 7777.507;  232.233; 8532.811; 0.04143
 796.05; 7751.280;  243.461; 8505.258; 0.04156
 796.62; 7710.387;  248.023; 8527.372; 0.04512
 797.19; 7709.827;  237.917; 8507.820; 0.04407
 797.75; 7676.266;  226.145; 8453.600; 0.04310
 798.32; 7692.373;  218.373; 8393.714; 0.03895
 798.88; 7680.813;  222.601; 8383.829; 0.03912
 799.45; 7747.920;  224.829; 8436.276; 0.03802
 800.01; 7803.026;  220.391; 8517.723; 0.03912
 800.58; 8040.799;  215.952; 8677.504; 0.03397
 801.14; 8258.906;  222.513; 8916.952; 0.03418
 801.71; 8436.346;  218.074; 9117.399; 0.03458
 802.27; 8623.452;  206.969; 9310.180; 0.03406
 802.84; 8795.559;  188.864; 9480.294; 0.03325
 803.40; 9062.665;  179.758; 9723.075; 0.03114
 803.96; 9302.439;  198.986;10006.189; 0.03234
 804.53; 9603.879;  210.548;10273.303; 0.02990
 805.09; 9877.318;  208.442;10576.417; 0.03032
 805.66;10249.425;  200.670;10926.198; 0.02831
 806.22;10573.865;  172.898;11264.978; 0.02794
 806.79;10972.638;  185.793;11622.426; 0.02540
 807.35;11311.411;  182.354;11886.873; 0.02190
 807.92;11598.851;  214.582;12161.654; 0.02096
 808.48;11803.624;  221.810;12436.768; 0.02312
 809.05;12022.398;  217.705;12708.882; 0.02455
 809.61;12329.838;  213.933;13054.330; 0.02522
 810.17;12687.277;  218.827;13355.110; 0.02266
 810.74;12999.051;  231.055;13671.891; 0.02230
 811.30;13266.157;  226.617;13899.672; 0.02060
 811.87;13539.597;  214.511;14212.453; 0.02139
 812.43;13831.370;  214.406;14571.233; 0.02298
 812.99;14124.144;  216.967;14881.014; 0.02301
 813.56;14440.583;  221.862;15191.462; 0.02235
 814.12;14751.690;  221.090;15523.909; 0.02249
 814.69;15112.463;  216.318;15866.356; 0.02144
 815.25;15341.236;  210.213;16143.804; 0.02245
 815.81;15613.676;  200.774;16302.251; 0.01898
 816.38;15825.783;  196.335;16642.699; 0.02213
 816.94;16109.889;  193.897;16882.479; 0.02059
 817.51;16346.996;  192.791;17283.594; 0.02448
 818.07;16595.436;  201.019;17504.374; 0.02343
 818.63;16805.876;  202.247;17804.155; 0.02536
 819.20;17016.649;  201.808;18033.936; 0.02551
 819.76;17295.422;  209.370;18216.050; 0.02279
 820.32;17505.862;  216.598;18394.831; 0.02178
 820.89;17657.302;  218.159;18583.278; 0.02247
 821.45;17790.742;  193.387;18775.726; 0.02365
 822.01;17942.848;  176.615;18965.173; 0.02430
 822.58;17994.288;  180.843;19065.620; 0.02536
 823.14;18094.728;  194.404;19233.068; 0.02678
 823.70;18193.168;  202.299;19352.182; 0.02711
 824.27;18278.608;  193.194;19462.963; 0.02755
 824.83;18274.048;  215.421;19467.743; 0.02780
 825.39;18198.488;  215.649;19374.524; 0.02751
 825.95;18191.594;  221.211;19316.972; 0.02638
 826.52;18070.368;  191.105;19274.752; 0.02831
 827.08;17965.141;  189.000;19152.200; 0.02807
 827.64;17727.581;  175.895;18949.314; 0.02922
 828.21;17445.687;  175.123;18660.095; 0.02951
 828.77;17186.460;  181.351;18397.542; 0.02988
 829.33;16888.567;  183.579;18029.323; 0.02869
 829.89;16558.007;  181.807;17638.104; 0.02774
 830.46;16188.447;  185.701;17297.218; 0.02909
 831.02;15929.553;  190.596;16895.332; 0.02586
 831.58;15595.993;  201.157;16540.779; 0.02587
 832.15;15164.433;  185.052;16128.893; 0.02710
 832.71;14679.873;  188.280;15811.341; 0.03265
 833.27;14272.646;  178.841;15353.455; 0.03209
 833.83;13883.420;  169.736;14940.569; 0.03225
 834.39;13491.193;  164.297;14394.016; 0.02847
 834.96;12981.966;  162.192;13925.464; 0.03084
 835.52;12527.739;  187.086;13474.578; 0.03210
 836.08;12158.179;  188.981;13047.025; 0.03111
 836.64;11873.619;  194.876;12619.473; 0.02689
 837.21;11538.059;  198.770;12148.920; 0.02279
 837.77;11090.165;  198.332;11759.367; 0.02590
 838.33;10637.939;  206.893;11447.148; 0.03245
 838.89;10268.045;  203.121;11001.596; 0.03055
 839.45; 9861.818;  205.349;10589.710; 0.03156
 840.02; 9522.592;  209.910;10134.490; 0.02764
 840.58; 9110.032;  201.805; 9836.938; 0.03407
 841.14; 8768.138;  224.699; 9457.052; 0.03368
 841.70; 8376.578;  220.594; 9049.833; 0.03445
 842.26; 8037.351;  218.155; 8613.280; 0.03087
 842.82; 7647.124;  209.050; 8233.061; 0.03293
 843.39; 7275.564;  200.278; 7802.175; 0.03118
 843.95; 6896.004;  213.839; 7446.956; 0.03441
 844.51; 6542.777;  213.734; 7076.737; 0.03518
 845.07; 6282.551;  223.295; 6751.184; 0.03235
 845.63; 6052.324;  228.523; 6447.965; 0.02854
 846.19; 5859.430;  213.418; 6205.745; 0.02585
 846.75; 5615.204;  212.646; 6042.860; 0.03309
 847.32; 5403.977;  191.874; 5828.307; 0.03399
 847.88; 5176.417;  198.435; 5647.088; 0.03924
 848.44; 5030.523;  182.996; 5418.202; 0.03341
 849.00; 4853.963;  188.224; 5206.649; 0.03165
 849.56; 4798.736;  183.119; 5035.763; 0.02175
 850.12; 4680.510;  176.680; 4913.211; 0.02188
 850.68; 4636.950;  181.908; 4877.325; 0.02282
 851.24; 4551.389;  184.136; 4806.439; 0.02465
 851.80; 4524.496;  199.364; 4790.220; 0.02589
 852.37; 4489.603;  196.592; 4731.334; 0.02379
 852.93; 4437.709;  204.820; 4729.448; 0.02895
 853.49; 4356.149;  212.715; 4650.895; 0.02984
 854.05; 4288.589;  223.943; 4597.676; 0.03183
 854.61; 4266.029;  224.171; 4520.790; 0.02655
 855.17; 4287.135;  234.066; 4501.904; 0.02242
 855.73; 4317.242;  222.627; 4484.352; 0.01737
 856.29; 4313.015;  213.855; 4475.132; 0.01684
 856.85; 4322.122;  192.749; 4517.913; 0.02012
 857.41; 4359.562;  203.644; 4600.027; 0.02443
 857.97; 4416.335;  205.205; 4760.141; 0.03408
 858.53; 4544.108;  207.433; 4902.255; 0.03446
 859.09; 4746.215;  192.328; 5028.370; 0.02611
 859.65; 4940.655;  184.889; 5166.484; 0.02015
 860.21; 5194.761;  182.451; 5403.598; 0.01773
 860.77; 5419.868;  179.679; 5685.045; 0.02144
 861.33; 5777.308;  189.573; 6014.826; 0.01808
 861.89; 6115.081;  205.135; 6331.273; 0.01560
 862.45; 6458.187;  215.363; 6656.387; 0.01357
 863.01; 6747.294;  205.924; 6960.168; 0.01391
 863.57; 7052.400;  191.152; 7240.949; 0.01177
 864.13; 7331.174;  180.713; 7598.730; 0.01595
 864.69; 7697.947;  188.608; 7928.510; 0.01313
 865.25; 7993.720;  208.502; 8274.958; 0.01541
 865.81; 8347.827;  215.730; 8598.739; 0.01320
 866.37; 8635.933;  213.625; 8883.853; 0.01260
 866.93; 8913.373;  200.853; 9198.967; 0.01401
 867.49; 9203.480;  216.081; 9536.081; 0.01578
 868.05; 9518.586;  210.642; 9849.195; 0.01516
 868.61; 9847.693;  206.870;10116.309; 0.01193
 869.17;10084.466;  185.765;10306.090; 0.00962
 869.73;10381.239;  202.660;10652.537; 0.01142
 870.29;10666.346;  209.554;10985.985; 0.01308
 870.85;10973.786;  212.115;11316.099; 0.01360
 871.41;11369.226;  192.010;11700.213; 0.01267
 871.97;11726.332;  179.571;12032.994; 0.01138
 872.53;12167.439;  184.799;12414.108; 0.00885
 873.09;12332.545;  192.361;12748.222; 0.01462
 873.65;12749.652;  202.922;13125.336; 0.01281
 874.20;13098.092;  204.150;13530.783; 0.01433
 874.76;13552.758;  206.483;13844.450; 0.00939
 875.32;13895.092;  199.150;14344.450; 0.01402
 875.88;14283.092;  204.817;14722.117; 0.01334
 876.44;14590.758;  218.150;15059.450; 0.01394
 877.00;14916.425;  218.150;15358.117; 0.01286
 877.56;15119.758;  215.483;15696.450; 0.01649
 878.12;15435.092;  204.483;16104.450; 0.01868
 878.68;15671.092;  211.817;16344.450; 0.01852
 879.23;15981.425;  207.150;16637.783; 0.01770
 879.79;16226.758;  220.483;16875.783; 0.01726
 880.35;16491.758;  205.150;17127.117; 0.01662
 880.91;16711.425;  192.150;17367.783; 0.01692
 881.47;16936.758;  175.817;17611.783; 0.01715
 882.03;17221.758;  191.483;17929.783; 0.01769
 882.59;17435.758;  204.150;18199.450; 0.01883
 883.14;17702.425;  217.150;18423.117; 0.01754
 883.70;17810.425;  220.150;18492.117; 0.01651
 884.26;17955.092;  217.483;18606.117; 0.01565
 884.82;17969.425;  200.150;18627.783; 0.01580
 885.38;17937.758;  184.483;18693.783; 0.01811
 885.94;17922.425;  186.817;18692.783; 0.01847
 886.49;17939.758;  200.150;18759.783; 0.01963
 887.05;17970.758;  192.817;18819.450; 0.02025
 887.61;17892.758;  182.817;18766.450; 0.02091
 888.17;17711.092;  175.817;18655.450; 0.02278
 888.73;17532.758;  189.483;18492.450; 0.02339
 889.28;17387.425;  190.150;18251.117; 0.02128
 889.84;17326.758;  191.817;18020.450; 0.01724
 890.40;17235.092;  194.817;17792.450; 0.01398
 890.96;17104.758;  199.483;17628.450; 0.01325
 891.51;16843.092;  189.483;17470.117; 0.01605
 892.07;16571.758;  183.817;17244.117; 0.01746
 892.63;16435.425;  190.483;17036.783; 0.01579
 893.19;16372.092;  200.817;16880.117; 0.01343
 893.74;16296.092;  215.150;16772.783; 0.01269
 894.30;16082.092;  206.150;16671.450; 0.01583
 894.86;15937.758;  185.150;16510.450; 0.01551
 895.42;15852.425;  176.483;16397.450; 0.01484
 895.97;15744.092;  175.150;16362.450; 0.01692
 896.53;15628.092;  203.817;16299.450; 0.01850
 897.09;15554.425;  212.817;16258.117; 0.01948
 897.65;15489.425;  225.483;16079.783; 0.01648
 898.20;15552.092;  228.483;15994.117; 0.01235
 898.76;15499.092;  215.150;15888.117; 0.01092
 899.32;15418.425;  215.483;15824.450; 0.01145
 899.87;15265.092;  206.483;15765.117; 0.01419
 900.43;15101.425;  206.150;15631.783; 0.01519
 900.99;15046.092;  194.483;15508.450; 0.01331
 901.54;14802.758;  181.150;15319.450; 0.01508
 902.10;14585.758;  193.150;15133.117; 0.01621
 902.66;14338.425;  208.483;14918.117; 0.01746
 903.21;14242.092;  221.817;14754.117; 0.01558
 903.77;14122.425;  229.483;14588.450; 0.01433
 904.33;14063.425;  209.483;14443.783; 0.01176
 904.88;13912.758;  198.150;14329.783; 0.01301
 905.44;13823.092;  177.150;14293.450; 0.01472
 906.00;13751.758;  191.150;14324.117; 0.01795
 906.55;13726.092;  207.483;14294.117; 0.01788
 907.11;13587.092;  214.150;14239.117; 0.02067
 907.67;13436.425;  205.817;14016.117; 0.01862
 908.22;13300.092;  196.150;13855.783; 0.01804
 908.78;13282.425;  187.817;13715.783; 0.01414
 909.33;13183.425;  195.483;13616.783; 0.01425
 909.89;13059.425;  192.150;13488.783; 0.01426
 910.45;12911.425;  201.150;13406.783; 0.01660
 911.00;12820.758;  191.483;13362.117; 0.01823
 911.56;12729.092;  203.817;13272.117; 0.01843
 912.12;12621.092;  208.483;13101.117; 0.01648
 912.67;12548.425;  221.483;12951.117; 0.01396
 913.23;12368.425;  194.150;12807.450; 0.01539
 913.78;12310.425;  178.483;12651.783; 0.01205
 914.34;12197.758;  201.483;12642.117; 0.01580
 914.89;12119.092;  216.483;12543.117; 0.01520
 915.45;11982.092;  227.150;12558.117; 0.02078
 916.01;11824.092;  195.483;12386.117; 0.02050
 916.56;11819.758;  201.483;12282.450; 0.01696
 917.12;11701.425;  196.817;12063.117; 0.01344
 917.67;11649.425;  195.483;11981.117; 0.01240
 918.23;11463.092;  182.817;11944.450; 0.01815
 918.78;11358.092;  186.483;11927.117; 0.02158
 919.34;11225.425;  188.817;11843.783; 0.02368
 919.89;11146.092;  199.150;11694.117; 0.02121
 920.45;11024.092;  185.817;11531.783; 0.01988
 921.00;10916.758;  168.817;11330.783; 0.01642
 921.56;10789.758;  176.150;11296.783; 0.02027
 922.11;10684.758;  175.150;11154.450; 0.01899
 922.67;10517.758;  202.483;11048.450; 0.02179
 923.22;10383.425;  191.150;10815.450; 0.01803
 923.78;10227.092;  202.817;10632.117; 0.01720
 924.33;10091.092;  195.817;10497.117; 0.01746
 924.89; 9922.425;  196.483;10361.117; 0.01916
 925.44; 9770.758;  204.817;10248.117; 0.02115
 926.00; 9592.758;  201.150;10018.783; 0.01927
 926.55; 9459.425;  205.150; 9867.117; 0.01872
 927.11; 9408.758;  188.150; 9720.450; 0.01444
 927.66; 9343.092;  177.817; 9717.117; 0.01737
 928.22; 9280.425;  174.483; 9670.783; 0.01823
 928.77; 9205.425;  190.150; 9636.117; 0.02027
 929.33; 9184.758;  204.150; 9587.783; 0.01907
 929.88; 9146.758;  205.150; 9516.450; 0.01759
 930.43; 9053.425;  182.483; 9493.450; 0.02103
 930.99; 9004.758;  174.817; 9470.117; 0.02231
 931.54; 9029.425;  167.150; 9456.783; 0.02045
 932.10; 9123.758;  190.150; 9473.117; 0.01666
 932.65; 9194.758;  197.150; 9480.117; 0.01356
 933.21; 9172.092;  198.483; 9496.450; 0.01542
 933.76; 9171.092;  187.483; 9472.117; 0.01431
 934.31; 9187.425;  183.150; 9454.117; 0.01268
 934.87; 9192.425;  190.150; 9433.783; 0.01149
 935.42; 9176.425;  199.483; 9431.450; 0.01217
 935.98; 9117.758;  195.483; 9388.450; 0.01298
 936.53; 9116.092;  193.817; 9335.450; 0.01055
 937.08; 9058.425;  191.150; 9347.783; 0.01395
 937.64; 9034.425;  197.817; 9356.783; 0.01556
 938.19; 9000.425;  196.483; 9425.117; 0.02046
 938.74; 8974.425;  199.817; 9340.117; 0.01773
 939.30; 8924.092;  187.150; 9339.783; 0.02019
 939.85; 8859.092;  186.483; 9209.783; 0.01722
 940.40; 8877.758;  173.817; 9251.783; 0.01827
 940.96; 8872.092;  187.150; 9238.450; 0.01794
 941.51; 8931.758;  189.483; 9244.783; 0.01528
 942.06; 8880.425;  197.150; 9160.450; 0.01378
 942.62; 8856.758;  184.817; 9036.783; 0.00892
 943.17; 8784.758;  195.150; 8966.450; 0.00909
 943.72; 8723.425;  180.483; 8903.117; 0.00904
 944.28; 8618.425;  199.483; 8795.117; 0.00902
 944.83; 8533.425;  184.150; 8766.783; 0.01197
 945.38; 8471.425;  194.483; 8735.117; 0.01362
 945.94; 8503.425;  186.483; 8804.450; 0.01544
 946.49; 8457.425;  205.150; 8772.783; 0.01629
 947.04; 8385.092;  208.817; 8738.117; 0.01836
 947.60; 8252.758;  215.150; 8638.117; 0.02034
 948.15; 8200.425;  203.483; 8519.117; 0.01697
 948.70; 8098.425;  212.817; 8413.783; 0.01703
 949.25; 8009.425;  206.150; 8325.117; 0.01722
 949.81; 7865.425;  208.817; 8271.117; 0.02242
 950.36; 7792.425;  198.483; 8157.117; 0.02037
 950.91; 7644.758;  207.150; 8037.783; 0.02236
 951.46; 7537.758;  203.817; 7873.117; 0.01942
 952.02; 7389.425;  207.150; 7734.117; 0.02036
 952.57; 7335.425;  207.150; 7606.450; 0.01621
 953.12; 7238.092;  218.483; 7526.117; 0.01746
 953.67; 7166.092;  218.150; 7443.783; 0.01702
 954.23; 7010.758;  215.817; 7359.450; 0.02173
 954.78; 6900.092;  208.150; 7234.450; 0.02117
 955.33; 6749.092;  218.150; 7119.783; 0.02398
 955.88; 6707.092;  217.150; 6980.117; 0.01790
 956.44; 6669.092;  230.483; 6838.450; 0.01128
 956.99; 6600.092;  228.817; 6737.117; 0.00924
 957.54; 6531.425;  223.817; 6672.783; 0.00963
 958.09; 6421.758;  222.150; 6636.783; 0.01481
 958.64; 6408.758;  206.817; 6607.450; 0.01370
 959.20; 6371.758;  203.483; 6532.450; 0.01117
 959.75; 6344.092;  199.817; 6496.450; 0.01064
 960.30; 6339.758;  218.150; 6441.783; 0.00718
 960.85; 6295.425;  225.150; 6424.450; 0.00913
 961.40; 6270.092;  228.817; 6381.117; 0.00791
 961.95; 6212.425;  231.817; 6360.783; 0.01064
 962.51; 6166.092;  239.483; 6360.117; 0.01399
 963.06; 6178.758;  242.817; 6380.117; 0.01449
 963.61; 6155.758;  234.150; 6314.783; 0.01151
 964.16; 6170.425;  235.150; 6258.450; 0.00639
 964.71; 6135.425;  222.483; 6212.117; 0.00560
 965.26; 6189.092;  213.150; 6253.117; 0.00463
 965.81; 6212.092;  210.817; 6289.117; 0.00554
 966.36; 6192.092;  208.483; 6323.783; 0.00945
 966.92; 6144.092;  216.150; 6305.117; 0.01164
 967.47; 6148.425;  218.483; 6338.117; 0.01367
 968.02; 6211.092;  232.483; 6354.117; 0.01027
 968.57; 6237.092;  234.817; 6375.450; 0.00990
 969.12; 6266.425;  219.817; 6368.783; 0.00729
 969.67; 6295.758;  204.483; 6420.783; 0.00882
 970.22; 6334.092;  194.150; 6469.783; 0.00949
 970.77; 6396.092;  199.817; 6539.117; 0.00991
 971.32; 6451.758;  197.483; 6593.117; 0.00971
 971.87; 6542.425;  198.817; 6693.117; 0.01020
 972.42; 6602.425;  215.150; 6793.117; 0.01278
 972.98; 6719.758;  220.817; 6908.783; 0.01245
 973.53; 6815.425;  231.483; 6996.117; 0.01176
 974.08; 6884.092;  215.483; 7040.450; 0.01007
 974.63; 6908.092;  223.483; 7078.450; 0.01093
 975.18; 6943.425;  218.483; 7103.117; 0.01019
 975.73; 7054.758;  224.817; 7157.450; 0.00648
 976.28; 7113.092;  221.483; 7219.117; 0.00663
 976.83; 7199.425;  221.483; 7315.450; 0.00716
 977.38; 7163.425;  219.483; 7373.783; 0.01296
 977.93; 7164.425;  222.150; 7387.450; 0.01373
 978.48; 7130.758;  228.483; 7365.783; 0.01454
 979.03; 7152.425;  234.817; 7358.117; 0.01273
 979.58; 7142.425;  221.483; 7329.117; 0.01156
 980.13; 7107.758;  207.150; 7367.783; 0.01606
 980.68; 7049.758;  186.483; 7310.450; 0.01619
 981.23; 7033.425;  185.817; 7278.117; 0.01525
 981.78; 7029.425;  207.150; 7207.450; 0.01119
 982.33; 7019.092;  219.150; 7257.117; 0.01494
 982.88; 7017.092;  232.483; 7211.783; 0.01229
 983.43; 6998.092;  218.150; 7145.783; 0.00936
 983.98; 6958.425;  215.150; 6984.117; 0.00165
 984.53; 6827.092;  203.817; 6873.450; 0.00303
 985.08; 6736.758;  209.817; 6835.783; 0.00654
 985.63; 6657.092;  211.150; 6787.117; 0.00867
 986.18; 6616.425;  218.817; 6756.783; 0.00943
 986.73; 6551.092;  218.483; 6610.450; 0.00405
 987.27; 6467.425;  227.483; 6521.117; 0.00372
 987.82; 6368.758;  238.483; 6431.783; 0.00444
 988.37; 6309.092;  243.150; 6400.783; 0.00652
 988.92; 6216.092;  234.150; 6351.117; 0.00969
 989.47; 6178.092;  214.483; 6285.117; 0.00772
 990.02; 6078.758;  208.483; 6199.117; 0.00881
 990.57; 6026.092;  208.150; 6083.117; 0.00424
 991.12; 5897.758;  215.150; 6044.450; 0.01107
 991.67; 5804.092;  213.817; 5969.117; 0.01263
 992.22; 5737.092;  200.483; 5915.450; 0.01377
 992.77; 5683.425;  200.150; 5802.450; 0.00933
 993.31; 5619.092;  204.817; 5735.783; 0.00926
 993.86; 5529.758;  230.483; 5683.783; 0.01244
 994.41; 5420.092;  235.150; 5580.117; 0.01320
 994.96; 5319.092;  226.483; 5473.117; 0.01294
 995.51; 5176.092;  218.817; 5377.783; 0.01732
 996.06; 5096.758;  208.483; 5293.783; 0.01716
 996.61; 5000.758;  222.483; 5201.783; 0.01790
 997.15; 4928.758;  236.150; 5083.450; 0.01409
 997.70; 4821.425;  241.150; 4965.117; 0.01342
 998.25; 4730.758;  247.483; 4873.450; 0.01361
 998.80; 4615.092;  248.483; 4740.117; 0.01226
 999.35; 4503.758;  249.483; 4623.450; 0.01205
 999.90; 4329.758;  236.150; 4455.117; 0.01310
1000.44; 4204.758;  224.483; 4340.450; 0.01456
1000.99; 4070.758;  232.483; 4190.783; 0.01337
1001.54; 3951.425;  237.150; 4067.450; 0.01336
1002.09; 3807.758;  231.817; 3939.117; 0.01567
1002.64; 3758.758;  238.483; 3855.450; 0.01177
1003.18; 3684.425;  240.483; 3766.783; 0.01026
1003.73; 3610.758;  238.483; 3661.450; 0.00648
1004.28; 3482.425;  226.817; 3584.450; 0.01340
1004.83; 3369.758;  209.483; 3488.117; 0.01597
1005.38; 3326.425;  210.150; 3420.783; 0.01295
1005.92; 3224.758;  219.150; 3321.783; 0.01380
1006.47; 3156.092;  236.817; 3231.783; 0.01112
1007.02; 3061.425;  235.483; 3140.117; 0.01193
1007.57; 3006.425;  222.817; 3087.450; 0.01246
1008.11; 2956.758;  211.817; 3028.450; 0.01120
1008.66; 2882.425;  205.150; 2973.450; 0.01452
1009.21; 2852.092;  192.483; 2907.783; 0.00900
1009.75; 2802.758;  177.817; 2862.117; 0.00971
1010.30; 2721.425;  170.150; 2793.117; 0.01204
1010.85; 2629.092;  176.817; 2712.783; 0.01457
1011.40; 2559.758;  204.150; 2628.450; 0.01248
1011.94; 2517.758;  221.817; 2545.783; 0.00527
1012.49; 2439.758;  216.483; 2464.450; 0.00480
1013.04; 2350.425;  194.150; 2362.117; 0.00235
1013.58; 2282.425;  184.150; 2325.117; 0.00875
1014.13; 2221.758;  188.483; 2268.117; 0.00979
1014.68; 2171.425;  196.483; 2233.450; 0.01343
1015.23; 2133.758;  203.150; 2181.450; 0.01060
1015.77; 2059.092;  199.817; 2113.117; 0.01244
1016.32; 2025.758;  204.817; 2072.450; 0.01100
1016.87; 1983.425;  209.483; 2012.783; 0.00713
1017.41; 1959.092;  206.817; 1977.450; 0.00453
1017.96; 1886.425;  194.817; 1953.450; 0.01688
1018.50; 1807.758;  186.483; 1926.450; 0.03068
1019.05; 1764.425;  188.483; 1903.450; 0.03672
1019.60; 1729.092;  182.817; 1815.783; 0.02369
1020.14; 1702.092;  196.150; 1752.783; 0.01438
1020.69; 1676.425;  196.150; 1698.117; 0.00632
1021.24; 1640.425;  209.483; 1650.450; 0.00303
1021.78; 1589.425;  188.483; 1620.450; 0.00951
1022.33; 1565.758;  190.150; 1592.450; 0.00835
1022.87; 1508.425;  182.817; 1587.783; 0.02525
1023.42; 1488.425;  198.150; 1567.117; 0.02571
1023.97; 1433.092;  200.150; 1516.117; 0.02830
1024.51; 1408.758;  212.150; 1465.117; 0.01999
1025.06; 1343.425;  200.483; 1401.117; 0.02139
1025.60; 1281.425;  198.817; 1340.783; 0.02318
1026.15; 1254.758;  181.150; 1307.783; 0.02094
1026.70; 1255.092;  185.483; 1284.783; 0.01189
1027.24; 1253.425;  195.483; 1279.783; 0.01069
1027.79; 1227.425;  200.483; 1270.450; 0.01782
1028.33; 1191.092;  197.483; 1252.450; 0.02602
1028.88; 1159.092;  188.817; 1215.450; 0.02452
1029.42; 1127.425;  208.150; 1198.450; 0.03232
1029.97; 1114.758;  197.817; 1156.450; 0.01931
1030.51; 1095.092;  190.150; 1127.117; 0.01510
1031.06; 1096.758;  182.817; 1088.783;-0.00381
1031.61; 1063.425;  192.483; 1063.117;-0.00015
1032.15; 1051.092;  210.150; 1050.450;-0.00033
1032.70; 1008.758;  202.817; 1024.117; 0.00820
1033.24; 1002.758;  206.483; 1018.117; 0.00830
1033.79;  998.092;  200.817; 1020.450; 0.01201
1034.33;  986.092;  199.817; 1016.450; 0.01645
1034.88;  976.758;  201.817; 1008.783; 0.01759
1035.42;  953.758;  202.817;  979.450; 0.01461
1035.97;  960.092;  204.483;  950.450;-0.00558
1036.51;  941.758;  206.483;  931.450;-0.00613
1037.06;  923.092;  200.817;  944.117; 0.01246
1037.60;  911.092;  207.150;  948.783; 0.02265
1038.14;  886.758;  204.150;  928.783; 0.02595
1038.69;  901.758;  222.150;  927.783; 0.01632
1039.23;  883.425;  234.483;  935.783; 0.03370
1039.78;  901.425;  235.150;  948.783; 0.02982
1040.32;  880.092;  224.483;  915.783; 0.02302
1040.87;  884.425;  208.483;  887.117; 0.00173
1041.41;  886.758;  198.150;  864.117;-0.01452
1041.96;  883.092;  200.817;  882.783;-0.00020
1042.50;  872.092;  197.817;  893.117; 0.01334
1043.04;  858.092;  213.817;  899.117; 0.02681
1043.59;  865.425;  217.150;  867.450; 0.00135
1044.13;  878.758;  212.483;  869.450;-0.00611
1044.68;  866.092;  205.817;  862.117;-0.00262
1045.22;  854.758;  199.150;  873.783; 0.01242
1045.76;  830.425;  201.817;  869.450; 0.02616
1046.31;  818.092;  193.483;  861.783; 0.02936
1046.85;  804.092;  200.483;  842.117; 0.02653
1047.40;  793.092;  202.483;  813.783; 0.01495
1047.94;  778.758;  215.150;  808.783; 0.02254
1048.48;  760.425;  211.150;  810.117; 0.03761
1049.03;  750.758;  214.483;  793.450; 0.03327
1049.57;  762.425;  229.150;  787.117; 0.01966
1050.11;  755.758;  222.817;  774.117; 0.01471
1050.66;  756.092;  218.483;  779.117; 0.01821
1051.20;  768.425;  206.483;  794.450; 0.01966
1051.74;  751.425;  200.817;  788.117; 0.02802
1052.29;  749.758;  200.150;  780.783; 0.02385
1052.83;  727.758;  199.150;  748.117; 0.01641
1053.37;  746.758;  224.817;  744.783;-0.00165
1053.92;  737.092;  234.150;  739.783; 0.00232
1054.46;  734.425;  236.483;  734.117;-0.00027
1055.00;  735.425;  231.483;  739.117; 0.00317
1055.55;  736.425;  230.817;  738.117; 0.00145
1056.09;  712.758;  223.817;  747.783; 0.03005
1056.63;  692.758;  215.817;  711.783; 0.01699
1057.17;  674.092;  216.483;  709.117; 0.03203
1057.72;  687.758;  225.150;  697.450; 0.00900
1058.26;  667.425;  223.483;  705.783; 0.03599
1058.80;  688.758;  229.817;  700.450; 0.01093
1059.35;  680.092;  230.483;  686.450; 0.00610
1059.89;  680.092;  230.150;  672.450;-0.00744
1060.43;  634.425;  227.817;  654.783; 0.02122
1060.97;  616.425;  223.817;  667.117; 0.05274
1061.52;  632.425;  231.150;  682.450; 0.05102
1062.06;  642.758;  231.483;  671.450; 0.02929
1062.60;  649.425;  236.483;  658.450; 0.00939
1063.14;  649.425;  232.483;  640.783;-0.00910
1063.69;  639.758;  216.483;  640.117; 0.00037
1064.23;  635.758;  208.817;  619.783;-0.01656
1064.77;  612.092;  200.483;  598.450;-0.01464
1065.31;  614.092;  201.817;  577.450;-0.04042
1065.85;  582.758;  206.483;  567.117;-0.01844
1066.40;  578.092;  205.150;  579.450; 0.00158
1066.94;  580.758;  217.817;  579.117;-0.00197
1067.48;  589.425;  209.150;  587.783;-0.00188
1068.02;  585.092;  233.817;  562.450;-0.02894
1068.56;  568.758;  216.817;  564.783;-0.00493
1069.10;  549.758;  212.817;  549.783; 0.00003
1069.65;  542.425;  195.817;  566.450; 0.02911
1070.19;  547.425;  208.817;  566.783; 0.02414
1070.73;  568.758;  223.817;  582.783; 0.01731
1071.27;  561.092;  215.817;  567.117; 0.00751
1071.81;  549.425;  207.150;  562.117; 0.01581
1072.35;  550.425;  201.817;  549.117;-0.00163
1072.90;  530.425;  197.150;  546.783; 0.02081
1073.44;  522.425;  202.817;  540.117; 0.02340
1073.98;  515.092;  206.150;  531.450; 0.02241
1074.52;  545.092;  224.483;  538.783;-0.00863
1075.06;  547.758;  218.483;  542.450;-0.00706
1075.60;  520.425;  207.483;  531.450; 0.01504
1076.14;  503.092;  204.817;  514.117; 0.01576
1076.68;  500.092;  207.150;  504.450; 0.00641
1077.22;  506.425;  225.817;  504.783;-0.00255
1077.76;  509.758;  214.817;  498.117;-0.01749
1078.31;  504.092;  229.817;  499.783;-0.00688
1078.85;  507.425;  226.483;  517.117; 0.01473
1079.39;  504.758;  243.817;  525.450; 0.03314
1079.93;  506.425;  237.817;  507.783; 0.00219
1080.47;  494.758;  227.483;  476.450;-0.03082
1081.01;  491.758;  216.150;  474.783;-0.02761
1081.55;  498.092;  208.483;  488.783;-0.01419
1082.09;  506.758;  205.817;  488.783;-0.02675
1082.63;  507.758;  210.150;  496.450;-0.01682
1083.17;  480.092;  221.150;  500.783; 0.03339
1083.71;  476.092;  228.817;  501.450; 0.04240
1084.25;  458.425;  224.483;  471.117; 0.02294
1084.79;  469.425;  214.483;  446.450;-0.04102
1085.33;  483.092;  202.817;  450.783;-0.05319
1085.87;  470.758;  199.483;  468.450;-0.00371
1086.41;  474.092;  214.483;  471.450;-0.00444
1086.95;  455.425;  222.150;  467.117; 0.02124
1087.49;  466.092;  225.817;  454.783;-0.02094
1088.03;  469.425;  216.817;  454.117;-0.02715
1088.57;  462.425;  219.817;  450.783;-0.02136
1089.11;  454.092;  222.150;  448.117;-0.01133
1089.65;  438.758;  233.150;  458.783; 0.04036
1090.19;  443.425;  238.483;  468.117; 0.04940
1090.73;  453.092;  240.483;  471.783; 0.03660
1091.27;  468.425;  238.817;  466.117;-0.00439
1091.81;  455.092;  238.483;  458.117; 0.00602
1092.35;  476.092;  247.483;  461.450;-0.02875
1092.89;  454.425;  232.150;  457.450; 0.00587
1093.43;  459.758;  223.817;  445.783;-0.02652
1093.97;  430.758;  210.150;  441.117; 0.01993
1094.51;  431.425;  208.483;  440.450; 0.01723
1095.04;  427.425;  218.483;  442.783; 0.03080
1095.58;  444.092;  238.817;  436.783;-0.01574
1096.12;  458.092;  242.817;  428.783;-0.06356
1096.66;  465.425;  239.817;  430.450;-0.07316
1097.20;  458.425;  235.817;  449.450;-0.01787
1097.74;  452.425;  246.817;  456.783; 0.00911
1098.28;  449.425;  235.817;  457.117; 0.01536
1098.82;  444.425;  230.483;  453.117; 0.01729
1099.36;  436.092;  228.150;  446.450; 0.02111
1099.89;  440.092;  230.150;  447.450; 0.01496

