
Integration time [ms]:   0.300
Averaging Nr. [scans]: 1
Smoothing Nr. [pixels]: 1
Data measured with spectrometer [name]: 1906252U1
Wave   ;Sample   ;Dark     ;Reference;Absorbance
[nm]   ;[counts] ;[counts] ;[counts] ;[A.U]

 161.30;  268.479;  271.207;  271.637; 0.00000
 161.90;  280.507;  265.524;  261.712; 0.00000
 162.51;  291.544;  259.038;  260.433;-1.36764
 163.11;  286.622;  265.693;  251.834; 0.00000
 163.71;  277.586;  276.696;  266.803; 0.00000
 164.31;  275.591;  294.270;  273.488; 0.00000
 164.91;  285.521;  288.393;  287.410; 0.00000
 165.52;  290.054;  277.299;  279.261;-0.81303
 166.12;  292.868;  271.979;  273.718;-1.07979
 166.72;  278.243;  272.971;  259.755; 0.00000
 167.32;  290.190;  271.656;  271.040; 0.00000
 167.93;  286.016;  261.266;  267.518;-0.59756
 168.53;  293.120;  254.112;  260.296;-0.79993
 169.13;  283.409;  264.427;  257.261; 0.00000
 169.73;  277.500;  271.677;  266.351; 0.00000
 170.33;  295.621;  291.614;  320.561; 0.85877
 170.94;  310.968;  317.756;  347.746; 5.00000
 171.54;  330.682;  335.278;  387.239; 5.00000
 172.14;  346.638;  338.926;  375.538; 0.67644
 172.74;  358.627;  324.358;  373.181; 0.15371
 173.34;  354.674;  319.589;  355.569; 0.01094
 173.95;  351.366;  309.596;  343.923;-0.08523
 174.55;  346.337;  318.289;  355.228; 0.11957
 175.15;  355.264;  320.689;  367.155; 0.12838
 175.75;  346.313;  322.370;  380.195; 0.38293
 176.35;  344.468;  332.415;  382.036; 0.61458
 176.95;  341.982;  327.740;  392.907; 0.66046
 177.56;  335.760;  327.608;  398.355; 0.93846
 178.16;  328.382;  316.738;  399.298; 0.85067
 178.76;  333.587;  316.306;  398.487; 0.67720
 179.36;  349.459;  310.874;  401.343; 0.37008
 179.96;  367.272;  304.800;  395.813; 0.16342
 180.56;  379.755;  308.938;  392.969; 0.07430
 181.17;  385.881;  318.009;  403.448; 0.09997
 181.77;  393.939;  318.897;  417.181; 0.11718
 182.37;  385.539;  306.653;  404.111; 0.09182
 182.97;  390.217;  319.309;  413.789; 0.12464
 183.57;  399.379;  323.525;  427.944; 0.13880
 184.17;  430.212;  336.736;  473.104; 0.16401
 184.78;  447.701;  316.624;  484.587; 0.10769
 185.38;  453.608;  315.012;  504.833; 0.13659
 185.98;  454.731;  315.783;  504.638; 0.13328
 186.58;  455.869;  316.598;  510.449; 0.14361
 187.18;  458.425;  313.002;  491.678; 0.08943
 187.78;  489.480;  324.256;  526.070; 0.08688
 188.38;  501.238;  331.840;  541.159; 0.09190
 188.98;  510.611;  337.804;  574.199; 0.13608
 189.59;  503.958;  332.575;  567.529; 0.13701
 190.19;  504.828;  326.870;  580.708; 0.15424
 190.79;  513.050;  326.914;  573.939; 0.12291
 191.39;  495.382;  317.159;  564.285; 0.14195
 191.99;  486.474;  322.498;  545.363; 0.13326
 192.59;  462.381;  317.307;  539.929; 0.18598
 193.19;  449.814;  313.765;  525.712; 0.19253
 193.79;  441.043;  325.164;  530.280; 0.24799
 194.39;  449.777;  328.250;  517.658; 0.19272
 195.00;  454.945;  327.216;  511.139; 0.15835
 195.60;  436.528;  305.566;  480.732; 0.12631
 196.20;  405.256;  304.088;  469.473; 0.21345
 196.80;  388.446;  305.278;  453.989; 0.25239
 197.40;  399.300;  313.686;  455.186; 0.21821
 198.00;  404.227;  320.693;  452.457; 0.19793
 198.60;  400.724;  317.270;  442.943; 0.17779
 199.20;  379.639;  312.435;  427.513; 0.23360
 199.80;  376.896;  303.957;  416.753; 0.18933
 200.40;  352.674;  299.492;  396.868; 0.26269
 201.00;  345.893;  293.841;  371.434; 0.17339
 201.60;  332.190;  292.845;  340.403; 0.08233
 202.21;  333.025;  298.995;  352.240; 0.19441
 202.81;  334.681;  303.760;  367.883; 0.31676
 203.41;  327.733;  301.801;  377.921; 0.46767
 204.01;  332.089;  296.447;  373.611; 0.33545
 204.61;  322.618;  287.965;  374.799; 0.39895
 205.21;  334.162;  280.528;  391.328; 0.31510
 205.81;  339.075;  276.000;  394.567; 0.27410
 206.41;  338.501;  281.190;  389.667; 0.27710
 207.01;  336.336;  291.585;  373.516; 0.26265
 207.61;  311.366;  290.832;  349.221; 0.45387
 208.21;  326.239;  294.007;  340.088; 0.15523
 208.81;  318.866;  285.376;  350.048; 0.28581
 209.41;  322.751;  292.971;  355.294; 0.32072
 210.01;  292.939;  286.985;  361.835; 1.09932
 210.61;  307.434;  290.534;  351.990; 0.56067
 211.21;  306.679;  293.399;  356.219; 0.67489
 211.81;  322.741;  300.157;  352.258; 0.36305
 212.41;  299.661;  301.896;  344.513; 5.00000
 213.01;  301.753;  296.332;  351.625; 1.00856
 213.61;  304.463;  285.263;  357.339; 0.57448
 214.21;  310.549;  282.939;  368.411; 0.49076
 214.81;  308.872;  278.704;  361.387; 0.43788
 215.41;  309.466;  282.466;  362.645; 0.47269
 216.01;  313.675;  278.247;  362.189; 0.37463
 216.61;  319.602;  287.920;  357.792; 0.34349
 217.21;  309.524;  290.599;  357.391; 0.54769
 217.81;  288.606;  297.221;  367.800; 5.00000
 218.41;  286.557;  301.628;  379.081; 5.00000
 219.01;  298.302;  307.801;  388.505; 5.00000
 219.61;  321.704;  301.739;  384.906; 0.61968
 220.21;  322.989;  297.568;  378.507; 0.50297
 220.81;  311.535;  283.737;  372.713; 0.50527
 221.41;  304.512;  284.091;  376.024; 0.65340
 222.01;  313.209;  280.426;  372.049; 0.44636
 222.61;  325.265;  298.953;  367.451; 0.41552
 223.21;  327.891;  301.813;  357.103; 0.32638
 223.81;  331.138;  301.952;  360.676; 0.30364
 224.41;  331.114;  281.875;  343.618; 0.09828
 225.01;  331.426;  269.317;  340.250; 0.05770
 225.61;  317.859;  274.108;  341.033; 0.18460
 226.21;  321.392;  273.112;  349.918; 0.20163
 226.81;  322.310;  286.490;  349.175; 0.24304
 227.41;  337.752;  284.059;  344.282; 0.04985
 228.01;  347.724;  302.172;  351.241; 0.03231
 228.61;  365.977;  306.727;  360.474;-0.04233
 229.21;  345.869;  303.825;  362.700; 0.14623
 229.81;  332.948;  308.998;  372.791; 0.42548
 230.41;  316.552;  299.055;  383.396; 0.68308
 231.01;  312.424;  300.808;  405.942; 0.95667
 231.61;  308.576;  287.307;  401.095; 0.72836
 232.21;  312.984;  300.328;  383.489; 0.81763
 232.81;  322.770;  296.307;  370.928; 0.45022
 233.41;  330.505;  302.578;  372.995; 0.40165
 234.00;  324.747;  298.240;  379.918; 0.48874
 234.60;  325.777;  290.487;  363.623; 0.31648
 235.20;  326.413;  295.152;  359.264; 0.31193
 235.80;  324.250;  295.330;  365.432; 0.38452
 236.40;  333.870;  302.765;  379.044; 0.38957
 237.00;  337.305;  303.584;  384.824; 0.38186
 237.60;  345.117;  294.000;  377.651; 0.21391
 238.20;  342.683;  295.121;  389.214; 0.29629
 238.80;  325.156;  274.112;  389.668; 0.35485
 239.40;  318.579;  279.177;  403.402; 0.49869
 240.00;  317.816;  284.599;  402.640; 0.55067
 240.59;  325.133;  298.133;  401.312; 0.58222
 241.19;  339.892;  297.989;  399.745; 0.38532
 241.79;  346.199;  288.710;  384.715; 0.22271
 242.39;  350.067;  292.222;  383.909; 0.20004
 242.99;  334.606;  286.642;  375.121; 0.26592
 243.59;  327.564;  289.230;  388.763; 0.41438
 244.19;  318.705;  286.160;  385.560; 0.48491
 244.79;  317.815;  287.511;  384.652; 0.50590
 245.39;  322.387;  287.293;  395.554; 0.48924
 245.98;  331.285;  273.053;  391.453; 0.30819
 246.58;  335.777;  274.487;  389.290; 0.27256
 247.18;  333.506;  285.342;  384.364; 0.31301
 247.78;  328.913;  295.696;  398.758; 0.49173
 248.38;  333.989;  288.656;  421.162; 0.46582
 248.98;  321.125;  277.356;  419.988; 0.51305
 249.58;  334.475;  265.673;  430.671; 0.37988
 250.17;  333.332;  275.285;  426.842; 0.41679
 250.77;  357.122;  283.143;  431.967; 0.30357
 251.37;  346.227;  286.929;  425.089; 0.36734
 251.97;  344.623;  270.293;  429.805; 0.33163
 252.57;  327.715;  265.298;  436.882; 0.43918
 253.17;  329.991;  272.929;  449.172; 0.48976
 253.77;  343.107;  284.186;  466.282; 0.49003
 254.36;  346.952;  295.474;  468.774; 0.52718
 254.96;  354.742;  295.333;  480.567; 0.49387
 255.56;  339.143;  288.604;  484.301; 0.58795
 256.16;  346.364;  278.462;  506.509; 0.52615
 256.76;  330.629;  277.524;  496.109; 0.61449
 257.36;  339.462;  276.735;  508.603; 0.56778
 257.95;  341.245;  264.992;  503.713; 0.49563
 258.55;  339.275;  264.239;  518.084; 0.52930
 259.15;  336.317;  260.564;  510.454; 0.51835
 259.75;  333.192;  269.345;  523.998; 0.60081
 260.35;  339.805;  267.461;  538.318; 0.57333
 260.94;  323.219;  268.819;  539.764; 0.69728
 261.54;  325.901;  275.530;  547.771; 0.73278
 262.14;  338.582;  279.723;  553.422; 0.66746
 262.74;  365.681;  296.084;  592.169; 0.62882
 263.34;  347.443;  285.302;  604.600; 0.71082
 263.93;  332.384;  271.414;  619.201; 0.75619
 264.53;  329.966;  269.158;  628.783; 0.77189
 265.13;  343.399;  270.950;  628.566; 0.69338
 265.73;  355.306;  275.426;  648.466; 0.66932
 266.33;  368.583;  278.566;  678.397; 0.64755
 266.92;  366.205;  275.029;  689.673; 0.65779
 267.52;  365.588;  279.954;  705.726; 0.69654
 268.12;  353.785;  273.264;  717.281; 0.74149
 268.72;  344.999;  281.951;  749.175; 0.86986
 269.31;  342.658;  293.596;  782.505; 0.99848
 269.91;  343.849;  296.813;  783.686; 1.01498
 270.51;  360.934;  298.884;  823.747; 0.92730
 271.11;  368.883;  296.018;  844.685; 0.87679
 271.70;  372.871;  281.274;  877.686; 0.81366
 272.30;  372.753;  270.568;  887.924; 0.78115
 272.90;  366.914;  264.784;  909.412; 0.80015
 273.50;  365.375;  274.785;  916.521; 0.85028
 274.09;  359.047;  285.359;  947.539; 0.95358
 274.69;  363.179;  293.425;  961.690; 0.98138
 275.29;  363.872;  297.126; 1011.041; 1.02922
 275.89;  379.693;  301.162; 1057.168; 0.98348
 276.48;  398.914;  306.441; 1108.365; 0.93812
 277.08;  419.892;  303.217; 1149.330; 0.86045
 277.68;  423.814;  300.562; 1156.928; 0.84187
 278.28;  406.610;  297.934; 1188.748; 0.91365
 278.87;  412.739;  305.120; 1219.213; 0.92910
 279.47;  418.560;  316.402; 1279.019; 0.97418
 280.07;  448.747;  311.564; 1306.537; 0.86051
 280.66;  452.677;  305.599; 1329.806; 0.84284
 281.26;  467.482;  299.502; 1356.605; 0.79886
 281.86;  461.011;  299.353; 1408.460; 0.83638
 282.46;  465.545;  289.111; 1464.667; 0.82366
 283.05;  486.064;  270.001; 1525.842; 0.76435
 283.65;  497.138;  269.267; 1577.248; 0.75891
 284.25;  504.551;  276.537; 1628.707; 0.77307
 284.84;  506.976;  297.639; 1660.819; 0.81371
 285.44;  543.863;  304.585; 1722.349; 0.77270
 286.04;  575.151;  306.626; 1767.304; 0.73557
 286.63;  586.380;  299.604; 1827.551; 0.72657
 287.23;  584.416;  285.934; 1878.582; 0.72720
 287.83;  583.820;  285.987; 1956.635; 0.74891
 288.42;  604.327;  282.947; 2012.456; 0.73090
 289.02;  621.550;  281.018; 2081.351; 0.72320
 289.62;  635.541;  274.153; 2105.373; 0.70477
 290.21;  660.715;  278.965; 2173.882; 0.69581
 290.81;  685.352;  296.139; 2171.832; 0.68297
 291.41;  695.131;  301.675; 2217.279; 0.68741
 292.00;  699.441;  287.695; 2273.257; 0.68325
 292.60;  738.105;  266.816; 2355.570; 0.64660
 293.20;  780.146;  269.053; 2441.953; 0.62854
 293.79;  817.045;  275.331; 2498.541; 0.61321
 294.39;  823.620;  284.326; 2544.463; 0.62231
 294.99;  854.264;  280.435; 2588.095; 0.60439
 295.58;  886.483;  284.687; 2619.961; 0.58889
 296.18;  908.762;  271.100; 2672.236; 0.57583
 296.78;  914.050;  267.474; 2741.524; 0.58279
 297.37;  928.097;  256.039; 2819.912; 0.58149
 297.97;  960.629;  255.858; 2927.442; 0.57872
 298.57; 1015.740;  262.727; 2989.557; 0.55886
 299.16; 1059.616;  278.359; 3083.789; 0.55521
 299.76; 1093.525;  281.775; 3176.366; 0.55216
 300.35; 1130.206;  281.214; 3269.362; 0.54650
 300.95; 1168.298;  278.404; 3324.462; 0.53440
 301.55; 1190.995;  287.229; 3346.846; 0.52961
 302.14; 1194.837;  278.314; 3431.366; 0.53659
 302.74; 1224.668;  277.164; 3537.862; 0.53673
 303.33; 1303.057;  277.506; 3665.575; 0.51899
 303.93; 1374.757;  284.053; 3763.621; 0.50382
 304.53; 1431.206;  290.889; 3809.743; 0.48938
 305.12; 1475.547;  285.666; 3889.067; 0.48121
 305.72; 1513.567;  304.345; 3962.749; 0.48079
 306.31; 1545.636;  292.556; 4062.826; 0.47839
 306.91; 1558.381;  290.122; 4183.574; 0.48713
 307.51; 1597.214;  280.000; 4278.734; 0.48227
 308.10; 1665.866;  295.710; 4394.048; 0.47584
 308.70; 1719.876;  291.190; 4468.751; 0.46599
 309.29; 1760.259;  287.634; 4547.826; 0.46134
 309.89; 1780.128;  264.902; 4638.675; 0.46038
 310.48; 1858.572;  273.673; 4739.754; 0.44992
 311.08; 1926.599;  268.620; 4876.118; 0.44389
 311.68; 1953.509;  273.221; 4959.384; 0.44543
 312.27; 1971.077;  278.703; 5074.278; 0.45234
 312.87; 2028.992;  271.869; 5225.848; 0.45015
 313.46; 2106.155;  276.691; 5385.013; 0.44595
 314.06; 2184.368;  276.193; 5529.885; 0.43985
 314.65; 2230.050;  282.238; 5632.559; 0.43883
 315.25; 2305.421;  283.262; 5774.255; 0.43384
 315.85; 2340.376;  277.637; 5914.876; 0.43662
 316.44; 2409.105;  287.913; 6071.938; 0.43565
 317.04; 2460.494;  295.255; 6216.984; 0.43694
 317.63; 2534.171;  310.823; 6400.341; 0.43758
 318.23; 2587.771;  298.737; 6546.296; 0.43606
 318.82; 2662.370;  293.221; 6674.883; 0.43034
 319.42; 2724.707;  273.276; 6781.545; 0.42405
 320.01; 2829.788;  280.055; 6929.646; 0.41630
 320.61; 2875.482;  290.511; 7164.652; 0.42476
 321.20; 2927.137;  285.758; 7272.939; 0.42247
 321.80; 2962.562;  292.860; 7497.718; 0.43116
 322.39; 3036.346;  275.154; 7636.540; 0.42586
 322.99; 3139.687;  275.755; 7857.556; 0.42281
 323.58; 3229.688;  286.597; 7977.531; 0.41718
 324.18; 3320.517;  287.901; 8124.673; 0.41232
 324.77; 3363.844;  292.485; 8318.013; 0.41714
 325.37; 3448.662;  278.984; 8442.167; 0.41084
 325.96; 3510.797;  276.253; 8588.958; 0.40993
 326.56; 3617.931;  298.768; 8771.095; 0.40697
 327.15; 3657.272;  300.036; 8947.778; 0.41092
 327.75; 3759.027;  300.925; 9129.536; 0.40705
 328.34; 3813.679;  272.723; 9291.838; 0.40604
 328.94; 3871.426;  266.072; 9447.905; 0.40598
 329.53; 3925.731;  277.765; 9658.876; 0.41020
 330.13; 4017.967;  293.098; 9872.460; 0.41023
 330.72; 4082.712;  297.428;10112.576; 0.41380
 331.32; 4145.200;  296.807;10347.750; 0.41693
 331.91; 4225.191;  286.021;10578.045; 0.41710
 332.51; 4356.943;  290.846;10832.428; 0.41373
 333.10; 4513.871;  280.941;11112.686; 0.40806
 333.69; 4635.716;  268.720;11343.870; 0.40417
 334.29; 4641.816;  259.020;11372.294; 0.40409
 334.88; 4659.423;  263.526;11404.218; 0.40386
 335.48; 4651.038;  274.151;11347.513; 0.40311
 336.07; 4710.883;  277.361;11521.065; 0.40416
 336.67; 4696.247;  271.793;11561.792; 0.40683
 337.26; 4688.527;  270.478;11724.744; 0.41374
 337.86; 4762.553;  274.661;11795.073; 0.40943
 338.45; 4834.384;  285.081;11996.201; 0.41065
 339.04; 4906.566;  280.248;12122.714; 0.40821
 339.64; 4901.008;  279.247;12324.855; 0.41602
 340.23; 4962.695;  276.541;12444.594; 0.41440
 340.83; 5064.434;  283.446;12579.002; 0.41023
 341.42; 5160.241;  284.034;12728.085; 0.40688
 342.02; 5211.219;  280.810;12860.717; 0.40679
 342.61; 5231.955;  285.029;12994.842; 0.40980
 343.20; 5300.785;  280.703;13173.363; 0.40963
 343.80; 5372.961;  275.024;13326.514; 0.40827
 344.39; 5456.573;  277.525;13574.777; 0.40951
 344.99; 5502.047;  284.701;13698.586; 0.41010
 345.58; 5540.126;  281.629;13941.331; 0.41458
 346.17; 5588.415;  272.425;14086.941; 0.41475
 346.77; 5649.319;  263.601;14425.499; 0.41988
 347.36; 5737.234;  267.766;14640.403; 0.41959
 347.96; 5813.242;  271.456;14918.073; 0.42209
 348.55; 5927.235;  272.039;15018.413; 0.41624
 349.14; 6034.413;  269.152;15148.264; 0.41176
 349.74; 6152.798;  282.193;15379.635; 0.41022
 350.33; 6212.119;  292.264;15619.281; 0.41315
 350.92; 6276.247;  292.029;15990.758; 0.41886
 351.52; 6350.528;  276.988;16197.719; 0.41852
 352.11; 6493.509;  277.642;16449.038; 0.41525
 352.70; 6574.272;  293.221;16652.467; 0.41573
 353.30; 6648.504;  299.069;16923.354; 0.41801
 353.89; 6691.303;  289.556;17199.826; 0.42185
 354.49; 6788.259;  295.537;17471.125; 0.42248
 355.08; 6877.714;  303.789;17648.240; 0.42134
 355.67; 6973.021;  306.509;17850.877; 0.42024
 356.27; 7034.233;  292.678;18013.082; 0.41971
 356.86; 7125.199;  288.376;18230.048; 0.41901
 357.45; 7204.481;  297.756;18507.331; 0.42103
 358.05; 7281.775;  297.214;18684.613; 0.42038
 358.64; 7350.457;  292.504;18894.298; 0.42088
 359.23; 7417.315;  289.300;19081.825; 0.42102
 359.83; 7498.878;  289.121;19433.380; 0.42412
 360.42; 7573.088;  293.174;19722.600; 0.42633
 361.01; 7678.319;  287.355;19981.487; 0.42564
 361.61; 7781.718;  287.502;20183.522; 0.42404
 362.20; 7835.251;  294.987;20496.718; 0.42800
 362.79; 7877.475;  302.910;20634.303; 0.42881
 363.38; 7918.004;  301.613;20815.514; 0.43030
 363.98; 8050.221;  289.171;20943.715; 0.42510
 364.57; 8090.990;  277.744;21176.149; 0.42728
 365.16; 8166.983;  288.573;21351.502; 0.42708
 365.76; 8177.424;  293.720;21537.287; 0.43050
 366.35; 8297.033;  294.920;21731.542; 0.42795
 366.94; 8315.969;  286.459;21913.791; 0.43031
 367.53; 8425.306;  286.426;22067.466; 0.42751
 368.13; 8493.984;  291.994;22246.489; 0.42760
 368.72; 8657.116;  285.482;22413.295; 0.42213
 369.31; 8665.840;  292.281;22597.374; 0.42549
 369.91; 8692.999;  283.382;22746.877; 0.42670
 370.50; 8726.211;  291.699;22820.059; 0.42667
 371.09; 8782.755;  278.017;22946.909; 0.42577
 371.68; 8817.843;  286.967;23106.324; 0.42731
 372.28; 8876.092;  294.984;23340.584; 0.42904
 372.87; 8969.005;  297.367;23443.502; 0.42638
 373.46; 9081.110;  297.723;23614.255; 0.42400
 374.05; 9126.692;  287.889;23758.158; 0.42412
 374.65; 9219.356;  290.440;23950.173; 0.42321
 375.24; 9221.530;  272.918;24146.349; 0.42616
 375.83; 9301.543;  275.848;24331.370; 0.42573
 376.42; 9326.379;  273.516;24515.563; 0.42778
 377.02; 9408.650;  293.907;24527.502; 0.42467
 377.61; 9487.489;  288.112;24762.668; 0.42496
 378.20; 9576.287;  297.747;24944.118; 0.42427
 378.79; 9676.392;  297.015;25086.217; 0.42209
 379.38; 9758.629;  282.191;25204.109; 0.41994
 379.98; 9819.003;  267.243;25344.469; 0.41920
 380.57; 9944.253;  272.112;25606.751; 0.41819
 381.16; 9932.943;  291.609;25727.129; 0.42130
 381.75;10028.633;  289.589;25767.151; 0.41764
 382.35;10120.744;  283.703;25937.612; 0.41629
 382.94;10283.831;  271.231;26182.039; 0.41293
 383.53;10438.889;  279.541;26558.760; 0.41275
 384.12;10518.106;  269.432;26865.627; 0.41415
 384.71;10659.837;  284.069;27028.687; 0.41122
 385.31;10711.683;  287.699;27353.893; 0.41439
 385.90;10849.551;  299.731;27598.110; 0.41289
 386.49;10916.448;  283.306;27919.987; 0.41482
 387.08;11012.409;  296.763;28085.602; 0.41385
 387.67;11105.732;  302.047;28384.267; 0.41486
 388.26;11304.878;  312.463;28670.094; 0.41158
 388.86;11539.209;  297.866;29041.131; 0.40772
 389.45;11739.686;  285.685;29324.329; 0.40402
 390.04;11861.837;  279.860;29566.863; 0.40289
 390.63;11942.261;  284.795;29878.048; 0.40459
 391.22;11965.237;  294.422;30097.179; 0.40716
 391.81;12074.323;  303.408;30368.117; 0.40725
 392.41;12213.619;  324.211;30517.642; 0.40475
 393.00;12418.649;  349.022;30747.606; 0.40116
 393.59;12513.624;  379.676;31111.212; 0.40358
 394.18;12715.921;  399.780;31505.223; 0.40236
 394.77;12804.501;  433.703;31930.599; 0.40587
 395.36;13017.735;  473.557;32244.356; 0.40359
 395.95;13074.174;  524.323;32561.017; 0.40701
 396.55;13274.376;  566.236;32856.406; 0.40499
 397.14;13412.895;  594.577;33298.717; 0.40677
 397.73;13635.442;  601.786;33627.642; 0.40379
 398.32;13840.298;  612.294;34204.404; 0.40474
 398.91;14097.491;  621.039;34614.988; 0.40183
 399.50;14351.343;  632.059;35200.379; 0.40135
 400.09;14576.220;  605.452;35675.306; 0.39971
 400.68;14913.057;  582.293;36366.134; 0.39742
 401.27;15192.265;  548.561;37014.694; 0.39624
 401.87;15509.837;  525.771;37604.957; 0.39350
 402.46;15783.705;  501.053;38119.893; 0.39121
 403.05;16048.211;  484.389;38675.942; 0.38985
 403.64;16290.422;  490.521;39240.769; 0.38962
 404.23;16504.109;  484.797;39841.080; 0.39037
 404.82;16758.403;  502.588;40438.695; 0.39036
 405.41;17001.219;  491.629;41140.816; 0.39132
 406.00;17256.785;  497.890;41752.976; 0.39123
 406.59;17557.713;  479.966;42383.807; 0.38982
 407.18;17834.698;  482.149;42943.385; 0.38863
 407.77;18099.688;  466.520;43500.038; 0.38748
 408.37;18327.630;  484.641;43973.019; 0.38691
 408.96;18596.792;  491.806;44465.898; 0.38540
 409.55;18867.520;  504.476;44970.283; 0.38408
 410.14;19056.744;  481.626;45459.452; 0.38407
 410.73;19335.436;  490.299;45905.805; 0.38200
 411.32;19521.052;  492.855;46441.730; 0.38288
 411.91;19771.593;  505.687;47060.216; 0.38317
 412.50;19922.372;  480.732;47624.639; 0.38469
 413.09;20116.847;  484.505;48110.411; 0.38487
 413.68;20264.051;  482.467;48573.257; 0.38580
 414.27;20448.379;  487.472;48936.919; 0.38511
 414.86;20603.112;  462.470;49236.309; 0.38411
 415.45;20829.246;  452.555;49687.411; 0.38314
 416.04;21009.600;  462.743;50083.734; 0.38292
 416.63;21147.143;  468.551;50542.275; 0.38409
 417.22;21275.560;  461.867;50754.683; 0.38316
 417.81;21373.036;  462.159;51068.477; 0.38383
 418.40;21598.912;  476.694;51393.675; 0.38212
 418.99;21779.784;  477.832;51737.830; 0.38136
 419.58;21875.382;  462.218;51969.382; 0.38119
 420.17;21896.406;  452.952;52248.392; 0.38300
 420.76;21960.198;  458.593;52499.836; 0.38388
 421.35;22096.463;  472.988;53005.769; 0.38550
 421.94;22139.200;  474.287;53203.501; 0.38629
 422.53;22170.017;  469.601;53402.299; 0.38726
 423.12;22323.899;  471.552;53493.823; 0.38496
 423.71;22398.965;  463.366;53670.857; 0.38482
 424.30;22454.640;  471.573;53819.883; 0.38503
 424.89;22346.770;  477.611;53888.037; 0.38779
 425.48;22269.128;  477.854;53974.356; 0.39004
 426.07;22167.844;  465.438;53940.695; 0.39164
 426.66;22103.347;  460.097;54040.507; 0.39368
 427.25;22208.299;  453.014;53995.096; 0.39113
 427.84;22147.271;  450.549;53912.043; 0.39165
 428.43;22104.008;  452.848;53711.442; 0.39091
 429.02;21923.457;  457.772;53797.552; 0.39531
 429.61;21897.042;  448.720;53826.107; 0.39596
 430.20;21719.062;  425.820;53758.443; 0.39875
 430.79;21691.196;  437.001;53531.580; 0.39761
 431.38;21559.509;  442.471;53315.543; 0.39860
 431.97;21456.759;  451.391;53001.434; 0.39824
 432.55;21190.334;  445.807;52690.011; 0.40113
 433.14;21007.403;  441.412;52704.411; 0.40504
 433.73;20841.747;  432.971;52655.054; 0.40804
 434.32;20756.656;  424.624;52606.263; 0.40934
 434.91;20567.131;  423.161;52233.737; 0.41027
 435.50;20427.603;  418.064;51971.869; 0.41102
 436.09;20194.394;  418.432;51687.970; 0.41372
 436.68;20022.416;  422.559;51624.303; 0.41703
 437.27;19886.591;  439.214;51661.122; 0.42059
 437.86;19731.721;  433.576;51508.561; 0.42269
 438.45;19618.149;  436.794;51330.326; 0.42378
 439.04;19432.459;  419.148;51043.637; 0.42530
 439.62;19240.821;  412.025;51000.963; 0.42923
 440.21;19054.258;  413.441;50885.373; 0.43258
 440.80;18976.420;  430.263;51024.538; 0.43585
 441.39;18949.363;  449.560;51081.161; 0.43725
 441.98;18857.180;  447.874;51020.625; 0.43888
 442.57;18686.150;  436.530;50797.219; 0.44084
 443.16;18501.869;  425.660;50702.578; 0.44426
 443.75;18292.559;  431.481;50788.909; 0.45016
 444.33;18109.702;  435.018;50969.383; 0.45624
 444.92;17925.332;  440.355;50892.685; 0.46022
 445.51;17846.339;  417.614;50850.986; 0.46145
 446.10;17766.601;  410.612;51056.876; 0.46510
 446.69;17736.954;  404.712;51275.545; 0.46761
 447.28;17623.812;  420.929;51457.726; 0.47228
 447.87;17499.811;  412.657;51329.383; 0.47419
 448.45;17363.190;  413.036;51412.748; 0.47839
 449.04;17278.766;  390.874;51445.980; 0.48046
 449.63;17205.756;  386.972;51646.289; 0.48398
 450.22;17064.606;  381.501;51835.467; 0.48914
 450.81;16961.025;  386.090;52100.884; 0.49416
 451.40;16798.619;  391.666;52058.120; 0.49818
 451.98;16728.260;  398.229;52052.065; 0.50012
 452.57;16625.670;  403.856;52211.469; 0.50429
 453.16;16454.223;  401.626;52273.023; 0.50938
 453.75;16274.249;  391.994;52359.708; 0.51482
 454.34;16108.243;  388.814;52215.013; 0.51811
 454.93;16032.613;  395.232;52494.699; 0.52267
 455.51;15948.479;  391.805;52615.216; 0.52595
 456.10;15852.724;  402.670;52907.445; 0.53127
 456.69;15795.666;  396.116;53041.712; 0.53385
 457.28;15725.158;  403.304;53288.203; 0.53802
 457.87;15679.632;  395.902;53216.666; 0.53858
 458.45;15598.697;  396.108;53304.691; 0.54161
 459.04;15491.081;  388.965;53401.373; 0.54534
 459.63;15441.872;  395.666;53676.141; 0.54914
 460.22;15318.872;  396.420;53639.128; 0.55242
 460.80;15260.546;  400.600;53692.823; 0.55465
 461.39;15108.610;  392.483;53895.895; 0.56059
 461.98;15083.863;  393.792;54364.115; 0.56513
 462.57;15045.730;  398.874;54782.941; 0.56973
 463.16;15005.419;  397.668;55197.607; 0.57420
 463.74;14955.690;  387.726;55673.212; 0.57921
 464.33;14879.911;  376.102;56213.777; 0.58545
 464.92;14885.522;  370.427;56547.398; 0.58774
 465.51;14955.509;  357.831;56911.710; 0.58818
 466.09;15088.058;  358.204;57352.888; 0.58764
 466.68;15131.973;  361.518;57898.436; 0.59055
 467.27;15065.511;  372.331;58292.638; 0.59572
 467.86;14985.274;  368.243;58560.733; 0.60001
 468.44;14938.469;  363.094;58919.922; 0.60396
 469.03;15002.036;  361.882;59322.152; 0.60501
 469.62;15067.946;  367.807;59788.037; 0.60661
 470.20;15149.600;  365.300;60231.337; 0.60738
 470.79;15120.792;  374.762;60677.863; 0.61166
 471.38;15075.432;  358.816;61146.166; 0.61601
 471.97;15057.671;  359.020;61564.389; 0.61951
 472.55;15031.636;  350.111;61933.679; 0.62269
 473.14;15085.566;  362.234;62406.602; 0.62470
 473.73;15091.529;  355.473;62971.535; 0.62830
 474.31;15212.472;  347.428;63489.444; 0.62815
 474.90;15253.960;  350.797;63899.238; 0.62983
 475.49;15323.295;  352.737;64160.914; 0.62964
 476.07;15272.353;  357.870;64473.326; 0.63335
 476.66;15272.555;  347.892;64752.829; 0.63501
 477.25;15228.091;  340.581;65000.332; 0.63781
 477.84;15221.625;  352.761;65155.193; 0.63931
 478.42;15170.720;  344.733;65155.945; 0.64063
 479.01;15112.110;  344.681;65156.001; 0.64235
 479.60;15040.294;  330.210;65156.511; 0.64414
 480.18;15034.063;  334.265;65158.257; 0.64442
 480.77;15029.969;  342.135;65159.480; 0.64473
 481.35;15073.194;  347.900;65159.373; 0.64359
 481.94;15021.673;  344.738;65159.188; 0.64504
 482.53;15024.084;  335.059;65159.923; 0.64475
 483.11;14888.214;  332.000;65160.709; 0.64872
 483.70;14815.904;  318.067;65161.719; 0.65056
 484.29;14724.530;  316.585;65163.324; 0.65329
 484.87;14714.763;  306.461;65164.542; 0.65335
 485.46;14699.157;  315.710;65164.272; 0.65404
 486.05;14568.120;  319.958;65162.920; 0.65810
 486.63;14492.116;  321.237;65162.258; 0.66045
 487.22;14366.442;  317.302;65162.909; 0.66423
 487.81;14383.254;  323.288;65164.368; 0.66387
 488.39;14322.362;  331.856;65164.474; 0.66596
 488.98;14187.945;  337.207;65163.733; 0.67028
 489.56;14036.686;  317.228;65164.794; 0.67456
 490.15;13907.950;  310.772;65166.371; 0.67850
 490.74;13826.047;  302.771;65167.454; 0.68093
 491.32;13656.726;  305.937;65168.774; 0.68649
 491.91;13434.697;  316.111;64974.057; 0.69273
 492.49;13230.949;  317.823;64712.314; 0.69782
 493.08;13059.757;  332.939;64167.133; 0.70033
 493.67;13004.840;  325.500;63724.219; 0.69898
 494.25;12860.477;  343.920;63105.848; 0.70021
 494.84;12732.390;  335.724;62474.087; 0.70005
 495.42;12556.062;  338.386;61959.759; 0.70274
 496.01;12380.625;  319.873;61399.648; 0.70452
 496.59;12185.764;  310.443;60754.114; 0.70671
 497.18;11990.800;  311.106;60078.479; 0.70903
 497.77;11815.306;  311.733;59331.632; 0.71017
 498.35;11676.815;  326.966;58841.796; 0.71228
 498.94;11512.229;  324.499;58030.218; 0.71248
 499.52;11436.538;  324.914;57567.186; 0.71194
 500.11;11329.637;  311.275;56906.600; 0.71066
 500.69;11233.613;  304.601;56449.246; 0.71073
 501.28;11190.077;  315.149;55764.708; 0.70747
 501.86;11079.847;  317.653;55155.772; 0.70718
 502.45;11017.468;  338.264;54632.693; 0.70622
 503.03;10849.760;  328.939;54106.656; 0.70855
 503.62;10792.840;  339.385;53665.090; 0.70768
 504.20;10722.392;  326.215;53123.968; 0.70574
 504.79;10697.250;  326.766;52666.148; 0.70303
 505.37;10668.624;  326.582;52358.543; 0.70166
 505.96;10653.171;  332.269;51859.105; 0.69832
 506.55;10692.918;  327.706;51491.158; 0.69338
 507.13;10775.196;  315.837;51254.709; 0.68754
 507.72;10836.562;  312.954;51138.387; 0.68392
 508.30;10953.457;  319.265;50944.634; 0.67766
 508.89;11060.974;  316.460;50626.145; 0.67046
 509.47;11210.893;  308.593;50383.056; 0.66210
 510.05;11273.707;  311.037;50305.214; 0.65900
 510.64;11424.025;  312.992;50205.541; 0.65228
 511.22;11574.962;  326.961;50242.492; 0.64716
 511.81;11773.317;  323.186;50282.527; 0.63981
 512.39;11942.401;  329.747;50266.280; 0.63349
 512.98;12126.242;  310.647;50213.110; 0.62567
 513.56;12277.107;  306.947;50200.284; 0.61994
 514.15;12466.346;  297.484;50225.841; 0.61310
 514.73;12645.176;  293.306;50310.339; 0.60739
 515.32;12908.213;  298.909;50412.714; 0.59927
 515.90;13174.977;  306.909;50529.464; 0.59139
 516.49;13381.128;  321.223;50576.262; 0.58524
 517.07;13604.681;  323.415;50501.804; 0.57728
 517.66;13737.506;  325.663;50468.951; 0.57272
 518.24;13984.996;  330.491;50581.443; 0.56587
 518.82;14106.000;  322.791;50433.118; 0.56058
 519.41;14385.139;  321.449;50483.238; 0.55227
 519.99;14661.869;  304.901;50520.942; 0.54378
 520.58;15017.116;  313.039;50964.514; 0.53715
 521.16;15284.775;  316.114;51139.212; 0.53088
 521.75;15574.372;  315.579;51354.849; 0.52438
 522.33;15829.043;  314.722;51552.832; 0.51886
 522.91;16121.357;  303.280;51724.449; 0.51199
 523.50;16386.336;  304.661;51708.091; 0.50466
 524.08;16755.109;  292.957;51816.521; 0.49552
 524.67;17036.091;  296.699;52029.160; 0.49002
 525.25;17385.239;  294.898;52244.306; 0.48283
 525.83;17668.278;  300.195;52281.679; 0.47610
 526.42;17941.260;  299.604;52255.985; 0.46910
 527.00;18197.598;  297.414;52315.968; 0.46330
 527.59;18511.368;  293.742;52194.390; 0.45468
 528.17;18848.777;  296.702;52169.461; 0.44655
 528.75;19107.434;  314.407;52237.781; 0.44137
 529.34;19290.856;  317.963;52410.206; 0.43864
 529.92;19616.345;  322.096;52599.701; 0.43289
 530.50;19888.072;  308.099;52577.086; 0.42643
 531.09;20255.243;  310.277;52580.588; 0.41842
 531.67;20492.716;  319.699;52493.409; 0.41268
 532.25;20680.603;  331.224;52474.618; 0.40865
 532.84;20805.752;  319.265;52286.406; 0.40426
 533.42;20958.138;  303.579;52069.121; 0.39902
 534.00;21115.960;  296.379;51800.283; 0.39337
 534.59;21194.696;  306.923;51692.027; 0.39095
 535.17;21197.307;  307.396;51484.292; 0.38914
 535.75;21402.721;  311.833;51399.345; 0.38422
 536.34;21746.351;  327.170;51106.314; 0.37488
 536.92;22007.377;  323.362;50970.357; 0.36841
 537.50;22128.728;  320.767;50555.361; 0.36239
 538.09;22184.980;  304.234;50224.272; 0.35821
 538.67;22295.057;  307.957;49849.711; 0.35280
 539.25;22490.575;  292.004;49517.578; 0.34587
 539.84;22649.118;  298.382;49195.084; 0.33999
 540.42;22735.148;  287.620;48747.408; 0.33421
 541.00;22792.016;  304.712;48328.615; 0.32952
 541.59;22794.869;  293.453;47996.146; 0.32633
 542.17;22910.379;  303.713;47681.974; 0.32134
 542.75;22990.505;  301.687;47449.085; 0.31765
 543.33;23062.843;  321.928;47035.436; 0.31263
 543.92;23126.864;  322.791;46647.473; 0.30780
 544.50;23185.398;  319.637;46212.001; 0.30255
 545.08;23220.478;  303.653;45900.067; 0.29878
 545.67;23229.941;  304.594;45544.519; 0.29521
 546.25;23230.020;  306.855;45243.598; 0.29233
 546.83;23306.316;  305.919;44881.223; 0.28736
 547.41;23430.057;  307.185;44485.963; 0.28117
 548.00;23495.507;  304.048;44073.416; 0.27584
 548.58;23585.114;  293.554;43651.340; 0.26987
 549.16;23663.080;  273.252;43462.973; 0.26635
 549.74;23821.781;  276.221;43125.006; 0.26003
 550.33;23816.480;  287.338;42789.017; 0.25680
 550.91;23819.601;  287.502;42328.145; 0.25201
 551.49;23808.500;  275.114;42084.067; 0.24958
 552.07;23998.445;  281.527;41894.675; 0.24417
 552.66;24121.702;  296.715;41696.915; 0.23997
 553.24;24296.259;  301.874;41407.799; 0.23379
 553.82;24255.532;  287.046;41262.389; 0.23288
 554.40;24428.796;  287.502;41018.645; 0.22717
 554.98;24453.996;  286.839;40927.197; 0.22573
 555.57;24660.559;  295.511;40724.442; 0.21992
 556.15;24801.314;  295.794;40729.857; 0.21748
 556.73;24935.992;  289.872;40584.856; 0.21350
 557.31;25003.917;  280.087;40487.094; 0.21119
 557.89;25048.064;  267.680;40402.230; 0.20941
 558.48;25234.982;  270.725;40389.487; 0.20603
 559.06;25577.471;  269.279;40492.969; 0.20122
 559.64;25812.190;  288.172;40421.363; 0.19655
 560.22;25905.313;  308.276;40298.501; 0.19376
 560.80;25978.590;  311.749;40155.433; 0.19099
 561.39;26143.985;  300.174;40123.139; 0.18778
 561.97;26470.658;  304.256;40118.465; 0.18229
 562.55;26761.787;  305.864;40159.584; 0.17795
 563.13;26900.687;  307.652;40244.814; 0.17661
 563.71;27072.523;  295.320;40343.674; 0.17482
 564.29;27278.334;  296.315;40286.513; 0.17088
 564.88;27485.535;  280.495;40218.374; 0.16674
 565.46;27717.955;  277.260;40267.767; 0.16356
 566.04;27885.430;  269.464;40338.574; 0.16165
 566.62;28170.632;  292.162;40520.457; 0.15926
 567.20;28319.852;  292.265;40647.678; 0.15832
 567.78;28498.924;  300.170;40851.754; 0.15778
 568.36;28691.257;  300.837;41002.754; 0.15644
 568.94;28844.369;  296.460;41004.189; 0.15410
 569.53;29043.044;  295.816;41099.192; 0.15210
 570.11;29227.014;  283.902;41113.488; 0.14943
 570.69;29434.114;  278.869;41248.245; 0.14774
 571.27;29588.465;  279.854;41227.262; 0.14523
 571.85;29763.760;  279.584;41295.220; 0.14336
 572.43;30033.779;  299.078;41479.213; 0.14142
 573.01;30254.109;  288.199;41566.526; 0.13909
 573.59;30446.907;  284.931;41522.011; 0.13583
 574.17;30587.179;  270.419;41423.650; 0.13272
 574.76;30714.602;  278.826;41529.098; 0.13204
 575.34;30891.833;  274.920;41725.997; 0.13157
 575.92;31100.695;  271.771;41808.186; 0.12947
 576.50;31328.673;  265.398;41828.507; 0.12646
 577.08;31432.550;  261.206;41866.048; 0.12539
 577.66;31544.550;  250.776;41875.013; 0.12389
 578.24;31614.045;  252.747;41879.155; 0.12297
 578.82;31831.465;  257.942;41897.583; 0.12018
 579.40;32062.426;  266.978;41903.210; 0.11711
 579.98;32238.178;  273.567;41841.961; 0.11409
 580.56;32381.865;  281.852;41853.319; 0.11229
 581.14;32471.045;  291.659;41917.834; 0.11179
 581.72;32642.460;  280.280;42082.244; 0.11116
 582.30;32770.699;  273.151;42074.467; 0.10934
 582.88;32801.517;  274.650;42152.288; 0.10974
 583.46;32973.702;  282.363;42189.821; 0.10786
 584.04;33180.987;  282.956;42171.457; 0.10492
 584.62;33427.672;  265.125;42197.830; 0.10191
 585.21;33522.949;  267.265;42241.428; 0.10112
 585.79;33633.209;  273.754;42392.009; 0.10125
 586.37;33794.508;  277.118;42415.309; 0.09941
 586.95;33975.023;  275.522;42455.787; 0.09749
 587.53;34220.748;  269.979;42469.819; 0.09446
 588.11;34451.842;  278.442;42585.262; 0.09272
 588.69;34555.093;  282.733;42557.865; 0.09114
 589.27;34564.701;  283.424;42506.477; 0.09049
 589.85;34567.169;  276.026;42443.602; 0.08980
 590.43;34763.843;  271.715;42599.939; 0.08891
 591.01;34870.415;  278.076;42722.853; 0.08884
 591.59;35041.170;  288.299;42936.945; 0.08891
 592.16;35044.216;  287.924;42891.657; 0.08841
 592.74;35198.951;  291.617;42886.045; 0.08644
 593.32;35318.879;  293.193;42739.948; 0.08346
 593.90;35481.906;  297.895;42708.966; 0.08113
 594.48;35542.636;  288.777;42603.037; 0.07928
 595.06;35703.058;  285.245;42684.475; 0.07814
 595.64;35815.484;  272.769;42709.242; 0.07699
 596.22;35811.383;  276.890;42757.472; 0.07754
 596.80;35716.541;  268.138;42505.619; 0.07610
 597.38;35656.488;  264.245;42457.558; 0.07634
 597.96;35576.503;  262.869;42299.911; 0.07569
 598.54;35642.663;  268.057;42320.734; 0.07510
 599.12;35659.011;  272.769;42174.074; 0.07339
 599.70;35830.221;  272.156;42133.628; 0.07088
 600.28;35799.132;  269.178;41999.881; 0.06986
 600.86;35834.500;  273.568;41898.236; 0.06838
 601.44;35718.583;  279.130;41816.989; 0.06896
 602.02;35549.577;  273.135;41601.984; 0.06877
 602.59;35467.102;  269.019;41487.164; 0.06857
 603.17;35439.581;  254.435;41427.991; 0.06826
 603.75;35487.271;  264.600;41407.036; 0.06747
 604.33;35503.267;  268.544;41269.041; 0.06582
 604.91;35412.869;  272.574;41056.648; 0.06469
 605.49;35266.631;  271.546;40985.067; 0.06573
 606.07;35165.803;  254.900;40828.877; 0.06529
 606.65;35203.295;  260.422;40696.701; 0.06341
 607.23;35187.047;  264.441;40448.820; 0.06095
 607.80;35123.263;  277.156;40221.379; 0.05930
 608.38;34963.713;  277.256;40025.464; 0.05916
 608.96;34908.928;  285.786;39921.000; 0.05871
 609.54;34706.294;  288.246;39743.725; 0.05932
 610.12;34547.277;  283.928;39528.375; 0.05895
 610.70;34326.205;  273.259;39095.265; 0.05692
 611.28;34160.006;  259.195;38813.390; 0.05586
 611.85;33985.501;  265.841;38433.913; 0.05382
 612.43;33693.199;  260.695;38304.961; 0.05612
 613.01;33420.073;  263.202;38019.161; 0.05641
 613.59;33096.032;  249.299;37795.112; 0.05807
 614.17;33030.658;  240.914;37668.085; 0.05745
 614.75;32921.775;  222.778;37521.205; 0.05716
 615.32;32827.690;  209.277;37291.775; 0.05571
 615.90;32612.809;  219.080;36866.572; 0.05358
 616.48;32364.551;  232.952;36658.988; 0.05448
 617.06;32117.057;  255.157;36308.488; 0.05367
 617.64;31858.377;  246.140;36072.812; 0.05435
 618.22;31758.746;  241.049;35666.522; 0.05076
 618.79;31594.507;  228.178;35515.632; 0.05116
 619.37;31504.222;  227.104;35180.352; 0.04826
 619.95;31200.838;  231.387;34894.600; 0.04894
 620.53;30876.739;  218.869;34491.494; 0.04841
 621.11;30498.854;  206.529;34156.975; 0.04951
 621.68;30365.242;  201.116;33920.700; 0.04839
 622.26;30273.337;  202.843;33803.106; 0.04820
 622.84;30115.944;  212.594;33643.042; 0.04842
 623.42;29900.637;  214.208;33340.072; 0.04761
 623.99;29671.055;  232.130;33128.823; 0.04823
 624.57;29620.436;  239.695;32874.211; 0.04561
 625.15;29526.833;  249.244;32723.283; 0.04500
 625.73;29493.996;  235.066;32483.448; 0.04225
 626.30;29269.011;  228.444;32290.122; 0.04298
 626.88;29031.830;  228.031;32032.596; 0.04304
 627.46;28702.001;  230.061;31766.787; 0.04440
 628.04;28541.748;  242.419;31549.234; 0.04386
 628.61;28345.619;  241.899;31249.103; 0.04270
 629.19;28196.954;  244.829;31015.066; 0.04172
 629.77;27928.985;  231.831;30736.758; 0.04193
 630.35;27665.734;  234.217;30562.869; 0.04360
 630.92;27508.773;  232.092;30375.921; 0.04341
 631.50;27400.312;  220.757;30199.145; 0.04257
 632.08;27247.506;  206.521;29949.680; 0.04136
 632.66;27051.963;  196.801;29744.460; 0.04150
 633.23;26692.258;  216.776;29426.430; 0.04268
 633.81;26448.855;  225.566;29138.020; 0.04240
 634.39;26215.279;  220.298;28844.754; 0.04185
 634.96;26140.654;  221.956;28624.791; 0.03975
 635.54;26056.064;  216.680;28606.896; 0.04089
 636.12;25909.776;  214.735;28334.976; 0.03917
 636.69;25755.404;  204.526;28222.591; 0.04003
 637.27;25522.001;  199.403;27913.834; 0.03920
 637.85;25333.236;  217.219;27696.062; 0.03905
 638.42;25138.162;  206.286;27392.989; 0.03760
 639.00;24964.277;  223.367;27259.457; 0.03853
 639.58;24748.750;  209.789;26981.612; 0.03782
 640.15;24554.628;  222.891;26790.445; 0.03818
 640.73;24355.410;  204.119;26492.226; 0.03682
 641.31;24243.193;  216.013;26471.006; 0.03851
 641.88;24092.642;  210.908;26285.787; 0.03816
 642.46;24009.424;  226.803;26132.901; 0.03714
 643.04;23908.206;  214.697;25934.349; 0.03564
 643.61;23758.655;  223.925;25817.463; 0.03642
 644.19;23671.437;  209.153;25659.577; 0.03532
 644.77;23476.886;  224.048;25468.358; 0.03569
 645.34;23300.002;  211.943;25293.805; 0.03597
 645.92;23047.451;  214.504;25070.586; 0.03687
 646.49;22972.566;  218.399;24938.033; 0.03598
 647.07;22962.349;  220.293;24745.814; 0.03279
 647.65;22827.131;  224.188;24564.928; 0.03217
 648.22;22700.913;  218.082;24391.042; 0.03148
 648.80;22544.695;  227.310;24368.156; 0.03411
 649.37;22444.478;  227.872;24339.937; 0.03556
 649.95;22312.593;  227.433;24242.051; 0.03638
 650.53;22211.042;  209.328;24121.165; 0.03616
 651.10;22073.491;  214.222;24054.279; 0.03767
 651.68;22014.273;  211.450;24020.060; 0.03822
 652.25;21888.722;  221.012;23899.174; 0.03853
 652.83;21888.171;  211.573;23700.955; 0.03488
 653.41;21807.953;  208.468;23524.069; 0.03320
 653.98;21836.069;  212.362;23340.850; 0.02922
 654.56;21791.185;  211.590;23307.630; 0.02949
 655.13;21711.300;  208.818;23285.744; 0.03069
 655.71;21526.416;  207.379;23284.525; 0.03441
 656.28;21433.531;  194.941;23185.639; 0.03443
 656.86;21389.647;  188.169;22962.753; 0.03108
 657.43;21340.429;  190.397;22872.868; 0.03038
 658.01;21328.545;  212.958;22793.315; 0.02913
 658.58;21287.327;  207.519;22876.096; 0.03156
 659.16;21271.776;  211.747;22798.876; 0.03040
 659.74;21233.891;  196.309;22777.324; 0.03075
 660.31;21190.007;  204.203;22714.438; 0.03045
 660.89;21184.789;  198.098;22687.885; 0.03004
 661.46;21140.905;  206.659;22545.999; 0.02821
 662.04;21058.021;  208.554;22516.780; 0.02937
 662.61;21009.803;  207.448;22500.894; 0.03006
 663.19;21034.585;  206.676;22626.342; 0.03198
 663.76;21124.701;  209.571;22600.456; 0.02961
 664.34;21101.483;  211.132;22526.237; 0.02865
 664.91;21079.598;  214.027;22413.684; 0.02692
 665.49;21112.714;  216.922;22441.798; 0.02678
 666.06;21173.830;  213.150;22513.246; 0.02690
 666.64;21235.612;  212.044;22555.693; 0.02645
 667.21;21133.394;  216.606;22500.140; 0.02749
 667.79;21185.176;  204.167;22400.588; 0.02446
 668.36;21151.625;  201.395;22402.702; 0.02519
 668.93;21204.408;  202.290;22421.149; 0.02446
 669.51;21133.856;  198.184;22426.263; 0.02602
 670.08;21047.639;  192.412;22387.044; 0.02703
 670.66;21076.754;  189.307;22273.825; 0.02420
 671.23;21116.870;  213.201;22361.606; 0.02512
 671.81;21175.985;  219.763;22403.720; 0.02473
 672.38;21126.101;  224.324;22501.167; 0.02767
 672.96;21058.217;  213.552;22510.281; 0.02925
 673.53;21007.332;  213.113;22482.395; 0.02976
 674.10;21108.114;  213.008;22524.843; 0.02849
 674.68;21130.563;  228.236;22505.290; 0.02766
 675.25;21203.012;  221.131;22417.404; 0.02444
 675.83;21115.795;  215.692;22370.185; 0.02531
 676.40;21164.910;  203.253;22300.299; 0.02291
 676.98;21140.026;  209.148;22323.413; 0.02389
 677.55;21110.808;  210.043;22281.527; 0.02367
 678.12;21094.590;  223.937;22260.975; 0.02362
 678.70;20939.039;  221.832;22236.089; 0.02637
 679.27;20924.821;  229.060;22163.870; 0.02525
 679.85;20816.937;  216.621;22124.984; 0.02674
 680.42;20936.386;  216.516;22133.431; 0.02439
 680.99;20885.835;  192.744;22099.212; 0.02475
 681.57;20904.950;  198.305;22028.659; 0.02295
 682.14;20803.399;  205.866;21848.773; 0.02150
 682.71;20771.515;  210.761;21795.554; 0.02111
 683.29;20681.964;  200.656;21706.668; 0.02120
 683.86;20580.746;  185.884;21546.116; 0.02009
 684.43;20430.862;  198.112;21362.230; 0.01955
 685.01;20345.977;  197.006;21197.011; 0.01797
 685.58;20364.760;  206.234;21272.458; 0.01913
 686.16;20438.208;  206.462;21269.239; 0.01748
 686.73;20431.657;  215.023;21397.686; 0.02027
 687.30;20323.440;  207.585;21388.467; 0.02241
 687.88;20198.222;  217.479;21321.914; 0.02376
 688.45;19999.671;  210.707;21118.362; 0.02388
 689.02;19888.453;  213.602;21022.142; 0.02433
 689.60;19865.235;  190.497;20889.257; 0.02204
 690.17;19896.684;  199.391;20926.704; 0.02214
 690.74;19848.133;  189.619;20805.485; 0.02065
 691.31;19822.249;  204.181;20824.932; 0.02165
 691.89;19788.031;  191.742;20754.713; 0.02091
 692.46;19764.480;  212.637;20700.494; 0.02031
 693.03;19620.929;  229.198;20611.941; 0.02165
 693.61;19599.378;  234.759;20426.722; 0.01817
 694.18;19503.160;  237.320;20424.503; 0.02029
 694.75;19348.276;  206.882;20414.950; 0.02355
 695.32;19263.058;  208.110;20458.064; 0.02642
 695.90;19289.840;  203.004;20312.512; 0.02267
 696.47;19252.289;  203.899;20210.626; 0.02132
 697.04;19138.405;  214.460;20060.073; 0.02065
 697.62;19081.187;  213.355;20039.187; 0.02151
 698.19;19154.636;  229.250;19951.301; 0.01791
 698.76;19106.085;  211.144;19960.082; 0.01920
 699.33;19039.867;  210.706;19883.196; 0.01903
 699.91;18939.649;  196.600;19795.977; 0.01940
 700.48;18929.098;  206.162;19674.091; 0.01695
 701.05;18857.214;  208.056;19645.538; 0.01798
 701.62;18748.996;  232.951;19536.652; 0.01809
 702.20;18580.445;  235.179;19463.767; 0.02042
 702.77;18522.561;  232.073;19314.881; 0.01842
 703.34;18500.009;  217.301;19303.995; 0.01869
 703.91;18524.125;  214.196;19161.775; 0.01487
 704.48;18447.907;  220.091;19054.223; 0.01421
 705.06;18407.023;  212.652;18964.004; 0.01310
 705.63;18314.138;  221.213;18940.118; 0.01477
 706.20;18248.921;  214.441;18934.565; 0.01621
 706.77;18106.370;  221.336;18864.679; 0.01803
 707.34;18001.152;  215.564;18821.793; 0.01959
 707.92;17808.934;  205.792;18710.907; 0.02170
 708.49;17733.383;  193.353;18575.022; 0.02035
 709.06;17764.832;  193.248;18466.136; 0.01700
 709.63;17861.614;  194.476;18431.916; 0.01380
 710.20;17905.730;  191.037;18446.697; 0.01306
 710.77;17849.512;  187.932;18338.145; 0.01185
 711.35;17828.294;  185.826;18305.592; 0.01159
 711.92;17822.743;  205.721;18271.706; 0.01093
 712.49;17823.859;  207.616;18372.487; 0.01332
 713.06;17804.641;  215.844;18405.934; 0.01460
 713.63;17801.090;  209.405;18498.382; 0.01688
 714.20;17855.206;  212.300;18556.829; 0.01694
 714.78;17842.654;  209.528;18487.277; 0.01559
 715.35;17838.103;  205.756;18407.724; 0.01381
 715.92;17764.552;  207.317;18351.838; 0.01429
 716.49;17757.335;  222.545;18343.285; 0.01428
 717.06;17772.450;  226.106;18273.400; 0.01223
 717.63;17755.566;  217.334;18198.847; 0.01084
 718.20;17750.681;  210.895;18175.294; 0.01039
 718.77;17629.797;  224.790;18170.075; 0.01328
 719.35;17597.579;  226.351;18153.189; 0.01367
 719.92;17510.695;  211.913;18038.303; 0.01305
 720.49;17455.144;  197.474;17879.084; 0.01054
 721.06;17362.926;  177.369;17774.532; 0.01028
 721.63;17362.375;  190.930;17799.979; 0.01093
 722.20;17409.490;  195.825;17861.426; 0.01126
 722.77;17403.273;  203.386;17825.540; 0.01053
 723.34;17341.722;  196.947;17821.321; 0.01198
 723.91;17258.504;  205.509;17813.102; 0.01390
 724.48;17164.953;  222.070;17777.883; 0.01543
 725.05;17143.068;  212.964;17617.997; 0.01202
 725.62;17091.851;  195.192;17490.778; 0.01013
 726.20;17150.633;  186.754;17461.892; 0.00790
 726.77;17151.748;  192.982;17446.339; 0.00748
 727.34;17130.531;  199.210;17412.787; 0.00718
 727.91;17084.980;  209.104;17361.567; 0.00706
 728.48;17034.095;  214.999;17354.015; 0.00818
 729.05;17088.878;  215.560;17353.795; 0.00677
 729.62;17113.993;  192.788;17320.910; 0.00528
 730.19;17088.775;  185.683;17297.024; 0.00532
 730.76;17005.891;  188.578;17324.138; 0.00814
 731.33;16933.340;  211.472;17306.252; 0.00958
 731.90;16850.789;  215.034;17274.033; 0.01091
 732.47;16785.571;  206.261;17242.147; 0.01180
 733.04;16763.687;  191.156;17245.594; 0.01245
 733.61;16733.802;  168.051;17256.042; 0.01348
 734.18;16707.584;  173.945;17191.156; 0.01252
 734.75;16644.367;  184.507;17077.270; 0.01127
 735.32;16707.149;  211.401;16955.384; 0.00649
 735.89;16698.265;  203.963;16851.831; 0.00402
 736.46;16563.380;  212.191;16734.945; 0.00453
 737.03;16424.829;  203.085;16674.393; 0.00663
 737.60;16280.611;  203.647;16580.840; 0.00804
 738.17;16171.394;  173.208;16558.621; 0.01039
 738.74;16035.842;  184.103;16523.735; 0.01317
 739.31;16014.291;  185.331;16430.849; 0.01128
 739.88;15992.407;  195.225;16300.630; 0.00839
 740.45;15999.523;  176.120;16234.411; 0.00640
 741.02;15884.305;  174.348;16293.858; 0.01118
 741.59;15883.087;  171.909;16337.305; 0.01238
 742.15;15943.869;  177.804;16325.753; 0.01039
 742.72;16037.652;  185.365;16376.867; 0.00920
 743.29;16050.767;  187.593;16351.648; 0.00816
 743.86;15938.549;  195.154;16298.095; 0.00981
 744.43;15903.998;  197.049;16220.543; 0.00867
 745.00;15992.447;  201.277;16240.323; 0.00676
 745.57;15971.230;  209.172;16261.771; 0.00793
 746.14;15976.012;  201.733;16198.552; 0.00608
 746.71;15917.127;  208.294;16179.666; 0.00720
 747.28;15942.576;  196.522;16170.446; 0.00624
 747.85;15867.359;  172.417;16124.227; 0.00705
 748.42;15826.807;  173.645;16103.675; 0.00761
 748.98;15801.256;  177.206;16075.455; 0.00756
 749.55;15792.039;  197.767;16011.569; 0.00607
 750.12;15773.488;  197.662;16015.683; 0.00670
 750.69;15734.603;  204.890;15955.131; 0.00612
 751.26;15706.385;  216.118;15910.245; 0.00568
 751.83;15633.834;  206.013;15821.026; 0.00524
 752.40;15678.617;  204.907;15769.807; 0.00255
 752.97;15679.399;  192.802;15780.587; 0.00283
 753.53;15636.514;  195.697;15773.035; 0.00382
 754.10;15489.297;  187.925;15706.815; 0.00613
 754.67;15500.412;  185.486;15666.263; 0.00468
 755.24;15500.861;  192.714;15616.044; 0.00326
 755.81;15465.977;  200.608;15583.491; 0.00333
 756.38;15340.426;  223.503;15510.272; 0.00485
 756.94;15254.208;  215.064;15482.386; 0.00654
 757.51;15190.324;  204.292;15502.833; 0.00896
 758.08;15119.439;  196.520;15545.281; 0.01222
 758.65;15068.221;  213.748;15443.728; 0.01084
 759.22;15040.337;  220.643;15351.176; 0.00901
 759.79;14959.119;  205.538;15180.623; 0.00647
 760.35;14880.568;  191.432;15130.404; 0.00732
 760.92;14761.684;  201.994;14987.518; 0.00668
 761.49;14588.133;  208.555;14849.965; 0.00784
 762.06;14472.915;  211.783;14641.079; 0.00509
 762.63;14391.030;  201.011;14500.527; 0.00334
 763.19;14305.146;  203.239;14469.641; 0.00504
 763.76;14232.928;  215.133;14423.422; 0.00586
 764.33;14140.377;  219.695;14294.202; 0.00477
 764.90;14080.826;  218.589;14107.650; 0.00084
 765.46;13831.275;  197.817;13914.097; 0.00263
 766.03;13695.057;  196.045;13749.878; 0.00176
 766.60;13541.840;  197.940;13624.992; 0.00270
 767.17;13427.622;  205.501;13465.773; 0.00125
 767.73;13142.404;  207.063;13413.220; 0.00900
 768.30;12992.186;  206.624;13205.001; 0.00717
 768.87;12837.635;  215.185;13045.782; 0.00710
 769.44;12729.084;  213.413;12836.229; 0.00370
 770.00;12494.866;  215.975;12686.677; 0.00673
 770.57;12347.649;  216.536;12525.791; 0.00633
 771.14;12167.431;  213.430;12350.238; 0.00659
 771.71;11994.213;  198.325;12122.686; 0.00470
 772.27;11793.995;  206.220;11935.800; 0.00528
 772.84;11605.444;  209.448;11715.914; 0.00419
 773.41;11476.560;  213.676;11595.695; 0.00457
 773.97;11349.676;  205.904;11440.809; 0.00354
 774.54;11210.458;  213.798;11314.923; 0.00411
 775.11;11074.907;  232.360;11227.370; 0.00606
 775.67;10890.689;  228.588;11074.818; 0.00744
 776.24;10732.471;  222.482;10902.265; 0.00696
 776.81;10595.253;  220.377;10665.712; 0.00294
 777.38;10466.369;  208.272;10484.160; 0.00075
 777.94;10352.485;  214.166;10350.941;-0.00007
 778.51;10187.600;  199.728;10214.721; 0.00118
 779.08;10077.382;  210.622;10137.835; 0.00265
 779.64; 9988.165;  201.517;10058.283; 0.00310
 780.21; 9893.947;  202.745; 9970.064; 0.00340
 780.78; 9801.063;  211.639; 9870.178; 0.00312
 781.34; 9666.178;  212.534; 9787.625; 0.00554
 781.91; 9614.960;  225.762; 9703.406; 0.00407
 782.47; 9519.743;  227.990; 9633.520; 0.00529
 783.04; 9492.525;  238.551; 9482.634;-0.00046
 783.61; 9386.974;  245.779; 9385.415;-0.00007
 784.17; 9339.423;  246.674; 9320.196;-0.00092
 784.74; 9273.872;  236.569; 9240.310;-0.00162
 785.31; 9251.654;  244.797; 9256.090; 0.00021
 785.87; 9186.770;  248.691; 9137.538;-0.00240
 786.44; 9152.885;  252.252; 9126.319;-0.00130
 787.00; 9062.334;  239.480; 9065.766; 0.00017
 787.57; 9013.783;  222.375; 9005.880;-0.00039
 788.14; 8915.899;  242.936; 8941.661; 0.00129
 788.70; 8862.347;  252.831; 8828.442;-0.00171
 789.27; 8834.796;  261.392; 8880.222; 0.00230
 789.83; 8806.912;  247.620; 8836.003; 0.00147
 790.40; 8830.028;  230.182; 8838.117; 0.00041
 790.96; 8773.143;  235.076; 8799.898; 0.00136
 791.53; 8760.592;  229.304; 8766.679; 0.00031
 792.10; 8669.374;  224.866; 8777.126; 0.00551
 792.66; 8654.157;  219.094; 8720.574; 0.00341
 793.23; 8584.272;  214.988; 8733.688; 0.00768
 793.79; 8584.721;  216.216; 8675.468; 0.00468
 794.36; 8596.503;  210.777; 8660.249; 0.00329
 794.92; 8618.286;  219.339; 8606.363;-0.00062
 795.49; 8653.401;  232.233; 8532.811;-0.00626
 796.05; 8576.517;  243.461; 8505.258;-0.00373
 796.62; 8543.632;  248.023; 8527.372;-0.00085
 797.19; 8470.748;  237.917; 8507.820; 0.00195
 797.75; 8436.197;  226.145; 8453.600; 0.00092
 798.32; 8416.979;  218.373; 8393.714;-0.00123
 798.88; 8406.095;  222.601; 8383.829;-0.00118
 799.45; 8471.877;  224.829; 8436.276;-0.00188
 800.01; 8593.659;  220.391; 8517.723;-0.00396
 800.58; 8781.775;  215.952; 8677.504;-0.00532
 801.14; 8977.557;  222.513; 8916.952;-0.00302
 801.71; 9190.006;  218.074; 9117.399;-0.00353
 802.27; 9421.455;  206.969; 9310.180;-0.00528
 802.84; 9686.904;  188.864; 9480.294;-0.00955
 803.40; 9957.019;  179.758; 9723.075;-0.01052
 803.96;10204.468;  198.986;10006.189;-0.00869
 804.53;10474.917;  210.548;10273.303;-0.00862
 805.09;10699.366;  208.442;10576.417;-0.00512
 805.66;11046.148;  200.670;10926.198;-0.00483
 806.22;11327.264;  172.898;11264.978;-0.00243
 806.79;11745.713;  185.793;11622.426;-0.00466
 807.35;11987.495;  182.354;11886.873;-0.00372
 807.92;12340.277;  214.582;12161.654;-0.00645
 808.48;12591.060;  221.810;12436.768;-0.00545
 809.05;12950.509;  217.705;12708.882;-0.00832
 809.61;13341.958;  213.933;13054.330;-0.00962
 810.17;13669.740;  218.827;13355.110;-0.01028
 810.74;13979.522;  231.055;13671.891;-0.00983
 811.30;14247.638;  226.617;13899.672;-0.01091
 811.87;14638.087;  214.511;14212.453;-0.01301
 812.43;14949.202;  214.406;14571.233;-0.01129
 812.99;15310.318;  216.967;14881.014;-0.01253
 813.56;15613.100;  221.862;15191.462;-0.01206
 814.12;16031.216;  221.090;15523.909;-0.01416
 814.69;16321.331;  216.318;15866.356;-0.01245
 815.25;16595.113;  210.213;16143.804;-0.01213
 815.81;16784.896;  200.774;16302.251;-0.01283
 816.38;17121.011;  196.335;16642.699;-0.01245
 816.94;17414.793;  193.897;16882.479;-0.01364
 817.51;17789.909;  192.791;17283.594;-0.01268
 818.07;17974.691;  201.019;17504.374;-0.01165
 818.63;18222.140;  202.247;17804.155;-0.01019
 819.20;18382.256;  201.808;18033.936;-0.00840
 819.76;18686.705;  209.370;18216.050;-0.01121
 820.32;18943.820;  216.598;18394.831;-0.01292
 820.89;19197.603;  218.159;18583.278;-0.01429
 821.45;19404.718;  193.387;18775.726;-0.01446
 822.01;19436.834;  176.615;18965.173;-0.01077
 822.58;19527.949;  180.843;19065.620;-0.01050
 823.14;19568.398;  194.404;19233.068;-0.00758
 823.70;19675.847;  202.299;19352.182;-0.00728
 824.27;19725.963;  193.194;19462.963;-0.00589
 824.83;19708.078;  215.421;19467.743;-0.00539
 825.39;19711.194;  215.649;19374.524;-0.00757
 825.95;19578.310;  221.211;19316.972;-0.00590
 826.52;19382.758;  191.105;19274.752;-0.00245
 827.08;19247.207;  189.000;19152.200;-0.00217
 827.64;19069.656;  175.895;18949.314;-0.00278
 828.21;18882.105;  175.123;18660.095;-0.00518
 828.77;18552.221;  181.351;18397.542;-0.00367
 829.33;18241.003;  183.579;18029.323;-0.00512
 829.89;17889.785;  181.807;17638.104;-0.00622
 830.46;17515.901;  185.701;17297.218;-0.00552
 831.02;17161.683;  190.596;16895.332;-0.00687
 831.58;16696.132;  201.157;16540.779;-0.00411
 832.15;16318.581;  185.052;16128.893;-0.00514
 832.71;15850.363;  188.280;15811.341;-0.00108
 833.27;15464.812;  178.841;15353.455;-0.00318
 833.83;14968.261;  169.736;14940.569;-0.00081
 834.39;14494.710;  164.297;14394.016;-0.00306
 834.96;14023.492;  162.192;13925.464;-0.00308
 835.52;13593.608;  187.086;13474.578;-0.00387
 836.08;13185.057;  188.981;13047.025;-0.00464
 836.64;12760.172;  194.876;12619.473;-0.00489
 837.21;12313.955;  198.770;12148.920;-0.00596
 837.77;11849.737;  198.332;11759.367;-0.00338
 838.33;11540.852;  206.893;11447.148;-0.00361
 838.89;11099.968;  203.121;11001.596;-0.00394
 839.45;10720.750;  205.349;10589.710;-0.00545
 840.02;10159.533;  209.910;10134.490;-0.00109
 840.58; 9794.981;  201.805; 9836.938; 0.00190
 841.14; 9405.430;  224.699; 9457.052; 0.00244
 841.70; 9070.546;  220.594; 9049.833;-0.00102
 842.26; 8692.328;  218.155; 8613.280;-0.00407
 842.82; 8336.444;  209.050; 8233.061;-0.00556
 843.39; 7922.226;  200.278; 7802.175;-0.00680
 843.95; 7586.008;  213.839; 7446.956;-0.00827
 844.51; 7226.457;  213.734; 7076.737;-0.00937
 845.07; 6950.573;  223.295; 6751.184;-0.01307
 845.63; 6660.688;  228.523; 6447.965;-0.01461
 846.19; 6379.137;  213.418; 6205.745;-0.01239
 846.75; 6151.920;  212.646; 6042.860;-0.00805
 847.32; 5887.702;  191.874; 5828.307;-0.00455
 847.88; 5686.484;  198.435; 5647.088;-0.00313
 848.44; 5441.600;  182.996; 5418.202;-0.00194
 849.00; 5263.382;  188.224; 5206.649;-0.00488
 849.56; 5102.498;  183.119; 5035.763;-0.00593
 850.12; 5020.280;  176.680; 4913.211;-0.00971
 850.68; 4983.729;  181.908; 4877.325;-0.00973
 851.24; 4928.511;  184.136; 4806.439;-0.01132
 851.80; 4912.293;  199.364; 4790.220;-0.01140
 852.37; 4856.075;  196.592; 4731.334;-0.01179
 852.93; 4848.524;  204.820; 4729.448;-0.01128
 853.49; 4796.307;  212.715; 4650.895;-0.01400
 854.05; 4770.089;  223.943; 4597.676;-0.01679
 854.61; 4746.538;  224.171; 4520.790;-0.02224
 855.17; 4698.320;  234.066; 4501.904;-0.01954
 855.73; 4638.436;  222.627; 4484.352;-0.01542
 856.29; 4625.218;  213.855; 4475.132;-0.01503
 856.85; 4667.000;  192.749; 4517.913;-0.01472
 857.41; 4732.116;  203.644; 4600.027;-0.01286
 857.97; 4797.231;  205.205; 4760.141;-0.00352
 858.53; 4901.347;  207.433; 4902.255; 0.00008
 859.09; 5148.796;  192.328; 5028.370;-0.01068
 859.65; 5413.911;  184.889; 5166.484;-0.02105
 860.21; 5709.694;  182.451; 5403.598;-0.02474
 860.77; 5967.476;  179.679; 5685.045;-0.02173
 861.33; 6255.592;  189.573; 6014.826;-0.01759
 861.89; 6592.040;  205.135; 6331.273;-0.01810
 862.45; 6902.156;  215.363; 6656.387;-0.01626
 863.01; 7275.938;  205.924; 6960.168;-0.01984
 863.57; 7651.054;  191.152; 7240.949;-0.02456
 864.13; 8041.836;  180.713; 7598.730;-0.02520
 864.69; 8361.618;  188.608; 7928.510;-0.02365
 865.25; 8731.401;  208.502; 8274.958;-0.02390
 865.81; 9061.516;  215.730; 8598.739;-0.02334
 866.37; 9384.298;  213.625; 8883.853;-0.02437
 866.93; 9626.414;  200.853; 9198.967;-0.02016
 867.49; 9905.863;  216.081; 9536.081;-0.01690
 868.05;10252.312;  210.642; 9849.195;-0.01779
 868.61;10557.427;  206.870;10116.309;-0.01891
 869.17;10865.543;  185.765;10306.090;-0.02337
 869.73;11185.992;  202.660;10652.537;-0.02162
 870.29;11587.774;  209.554;10985.985;-0.02360
 870.85;11984.890;  212.115;11316.099;-0.02540
 871.41;12374.672;  192.010;11700.213;-0.02473
 871.97;12656.788;  179.571;12032.994;-0.02227
 872.53;13014.570;  184.799;12414.108;-0.02082
 873.09;13346.352;  192.361;12748.222;-0.02021
 873.65;13788.134;  202.922;13125.336;-0.02172
 874.20;14145.583;  204.150;13530.783;-0.01959
 874.76;14519.250;  206.483;13844.450;-0.02097
 875.32;14886.917;  199.150;14344.450;-0.01634
 875.88;15308.917;  204.817;14722.117;-0.01721
 876.44;15736.250;  218.150;15059.450;-0.01937
 877.00;16100.250;  218.150;15358.117;-0.02078
 877.56;16402.250;  215.483;15696.450;-0.01936
 878.12;16677.583;  204.483;16104.450;-0.01538
 878.68;17045.917;  211.817;16344.450;-0.01848
 879.23;17312.917;  207.150;16637.783;-0.01749
 879.79;17508.917;  220.483;16875.783;-0.01620
 880.35;17647.917;  205.150;17127.117;-0.01316
 880.91;17944.917;  192.150;17367.783;-0.01435
 881.47;18252.250;  175.817;17611.783;-0.01567
 882.03;18625.583;  191.483;17929.783;-0.01671
 882.59;18837.583;  204.150;18199.450;-0.01513
 883.14;19103.250;  217.150;18423.117;-0.01593
 883.70;19231.917;  220.150;18492.117;-0.01724
 884.26;19356.250;  217.483;18606.117;-0.01736
 884.82;19453.583;  200.150;18627.783;-0.01904
 885.38;19437.583;  184.483;18693.783;-0.01711
 885.94;19397.917;  186.817;18692.783;-0.01624
 886.49;19366.917;  200.150;18759.783;-0.01398
 887.05;19345.583;  192.817;18819.450;-0.01210
 887.61;19318.917;  182.817;18766.450;-0.01272
 888.17;19131.583;  175.817;18655.450;-0.01105
 888.73;19008.583;  189.483;18492.450;-0.01208
 889.28;18855.583;  190.150;18251.117;-0.01430
 889.84;18663.583;  191.817;18020.450;-0.01539
 890.40;18467.583;  194.817;17792.450;-0.01635
 890.96;18271.250;  199.483;17628.450;-0.01573
 891.51;18116.917;  189.483;17470.117;-0.01596
 892.07;17916.250;  183.817;17244.117;-0.01678
 892.63;17748.917;  190.483;17036.783;-0.01798
 893.19;17552.917;  200.817;16880.117;-0.01717
 893.74;17336.250;  215.150;16772.783;-0.01453
 894.30;17229.250;  206.150;16671.450;-0.01447
 894.86;17194.917;  185.150;16510.450;-0.01784
 895.42;17190.583;  176.483;16397.450;-0.02073
 895.97;17089.917;  175.150;16362.450;-0.01909
 896.53;16957.583;  203.817;16299.450;-0.01740
 897.09;16886.583;  212.817;16258.117;-0.01669
 897.65;16864.583;  225.483;16079.783;-0.02098
 898.20;16846.583;  228.483;15994.117;-0.02287
 898.76;16754.917;  215.150;15888.117;-0.02338
 899.32;16552.250;  215.483;15824.450;-0.01979
 899.87;16418.583;  206.483;15765.117;-0.01787
 900.43;16284.250;  206.150;15631.783;-0.01799
 900.99;16263.250;  194.483;15508.450;-0.02089
 901.54;16082.917;  181.150;15319.450;-0.02137
 902.10;15838.250;  193.150;15133.117;-0.02003
 902.66;15571.250;  208.483;14918.117;-0.01887
 903.21;15375.250;  221.817;14754.117;-0.01818
 903.77;15256.917;  229.483;14588.450;-0.01976
 904.33;15096.250;  209.483;14443.783;-0.01946
 904.88;14961.250;  198.150;14329.783;-0.01899
 905.44;14876.917;  177.150;14293.450;-0.01759
 906.00;14806.250;  191.150;14324.117;-0.01457
 906.55;14708.583;  207.483;14294.117;-0.01259
 907.11;14557.583;  214.150;14239.117;-0.00975
 907.67;14369.917;  205.817;14016.117;-0.01099
 908.22;14260.917;  196.150;13855.783;-0.01269
 908.78;14175.583;  187.817;13715.783;-0.01452
 909.33;14158.917;  195.483;13616.783;-0.01720
 909.89;14158.917;  192.150;13488.783;-0.02135
 910.45;14087.917;  201.150;13406.783;-0.02184
 911.00;13989.250;  191.483;13362.117;-0.02020
 911.56;13855.250;  203.817;13272.117;-0.01896
 912.12;13708.250;  208.483;13101.117;-0.01998
 912.67;13563.583;  221.483;12951.117;-0.02041
 913.23;13363.917;  194.150;12807.450;-0.01875
 913.78;13216.583;  178.483;12651.783;-0.01923
 914.34;13080.250;  201.483;12642.117;-0.01503
 914.89;13004.250;  216.483;12543.117;-0.01595
 915.45;12943.250;  227.150;12558.117;-0.01336
 916.01;12850.917;  195.483;12386.117;-0.01625
 916.56;12731.250;  201.483;12282.450;-0.01584
 917.12;12603.583;  196.817;12063.117;-0.01934
 917.67;12512.917;  195.483;11981.117;-0.01917
 918.23;12362.917;  182.817;11944.450;-0.01518
 918.78;12274.250;  186.483;11927.117;-0.01265
 919.34;12138.917;  188.817;11843.783;-0.01086
 919.89;12055.250;  199.150;11694.117;-0.01343
 920.45;11845.917;  185.817;11531.783;-0.01186
 921.00;11719.583;  168.817;11330.783;-0.01487
 921.56;11607.917;  176.150;11296.783;-0.01198
 922.11;11533.583;  175.150;11154.450;-0.01474
 922.67;11355.250;  202.483;11048.450;-0.01211
 923.22;11205.250;  191.150;10815.450;-0.01565
 923.78;11072.583;  202.817;10632.117;-0.01797
 924.33;10943.917;  195.817;10497.117;-0.01844
 924.89;10773.917;  196.483;10361.117;-0.01729
 925.44;10601.583;  204.817;10248.117;-0.01502
 926.00;10443.917;  201.150;10018.783;-0.01841
 926.55;10292.917;  205.150; 9867.117;-0.01873
 927.11;10169.917;  188.150; 9720.450;-0.02001
 927.66;10098.250;  177.817; 9717.117;-0.01701
 928.22;10009.583;  174.483; 9670.783;-0.01522
 928.77; 9967.917;  190.150; 9636.117;-0.01499
 929.33; 9931.250;  204.150; 9587.783;-0.01561
 929.88; 9967.583;  205.150; 9516.450;-0.02055
 930.43; 9903.250;  182.483; 9493.450;-0.01871
 930.99; 9894.250;  174.817; 9470.117;-0.01938
 931.54; 9809.583;  167.150; 9456.783;-0.01619
 932.10; 9875.917;  190.150; 9473.117;-0.01845
 932.65; 9891.250;  197.150; 9480.117;-0.01882
 933.21; 9932.917;  198.483; 9496.450;-0.01992
 933.76; 9922.917;  187.483; 9472.117;-0.02059
 934.31; 9890.583;  183.150; 9454.117;-0.01998
 934.87; 9841.917;  190.150; 9433.783;-0.01876
 935.42; 9805.583;  199.483; 9431.450;-0.01725
 935.98; 9831.917;  195.483; 9388.450;-0.02046
 936.53; 9845.583;  193.817; 9335.450;-0.02358
 937.08; 9837.583;  191.150; 9347.783;-0.02263
 937.64; 9807.250;  197.817; 9356.783;-0.02085
 938.19; 9764.250;  196.483; 9425.117;-0.01567
 938.74; 9672.583;  199.817; 9340.117;-0.01552
 939.30; 9615.917;  187.150; 9339.783;-0.01291
 939.85; 9597.250;  186.483; 9209.783;-0.01826
 940.40; 9619.583;  173.817; 9251.783;-0.01725
 940.96; 9593.583;  187.150; 9238.450;-0.01671
 941.51; 9565.917;  189.483; 9244.783;-0.01513
 942.06; 9495.583;  197.150; 9160.450;-0.01594
 942.62; 9413.583;  184.817; 9036.783;-0.01810
 943.17; 9327.250;  195.150; 8966.450;-0.01751
 943.72; 9277.583;  180.483; 8903.117;-0.01826
 944.28; 9232.917;  199.483; 8795.117;-0.02157
 944.83; 9200.583;  184.150; 8766.783;-0.02141
 945.38; 9161.583;  194.483; 8735.117;-0.02116
 945.94; 9107.917;  186.483; 8804.450;-0.01503
 946.49; 9081.583;  205.150; 8772.783;-0.01538
 947.04; 9061.917;  208.817; 8738.117;-0.01618
 947.60; 8986.917;  215.150; 8638.117;-0.01762
 948.15; 8895.583;  203.483; 8519.117;-0.01923
 948.70; 8769.250;  212.817; 8413.783;-0.01843
 949.25; 8707.583;  206.150; 8325.117;-0.01999
 949.81; 8600.917;  208.817; 8271.117;-0.01741
 950.36; 8478.250;  198.483; 8157.117;-0.01718
 950.91; 8325.250;  207.150; 8037.783;-0.01566
 951.46; 8125.583;  203.817; 7873.117;-0.01407
 952.02; 8020.583;  207.150; 7734.117;-0.01622
 952.57; 7889.917;  207.150; 7606.450;-0.01633
 953.12; 7807.250;  218.483; 7526.117;-0.01639
 953.67; 7664.250;  218.150; 7443.783;-0.01305
 954.23; 7592.250;  215.817; 7359.450;-0.01393
 954.78; 7477.583;  208.150; 7234.450;-0.01477
 955.33; 7370.250;  218.150; 7119.783;-0.01548
 955.88; 7255.583;  217.150; 6980.117;-0.01734
 956.44; 7164.917;  230.483; 6838.450;-0.02094
 956.99; 7108.917;  228.817; 6737.117;-0.02413
 957.54; 7037.583;  223.817; 6672.783;-0.02390
 958.09; 6982.583;  222.150; 6636.783;-0.02280
 958.64; 6902.583;  206.817; 6607.450;-0.01958
 959.20; 6839.917;  203.483; 6532.450;-0.02060
 959.75; 6831.250;  199.817; 6496.450;-0.02250
 960.30; 6824.917;  218.150; 6441.783;-0.02594
 960.85; 6760.250;  225.150; 6424.450;-0.02291
 961.40; 6739.583;  228.817; 6381.117;-0.02459
 961.95; 6673.583;  231.817; 6360.783;-0.02162
 962.51; 6726.583;  239.483; 6360.117;-0.02525
 963.06; 6671.917;  242.817; 6380.117;-0.02017
 963.61; 6643.583;  234.150; 6314.783;-0.02287
 964.16; 6595.250;  235.150; 6258.450;-0.02363
 964.71; 6658.917;  222.483; 6212.117;-0.03125
 965.26; 6695.250;  213.150; 6253.117;-0.03068
 965.81; 6664.583;  210.817; 6289.117;-0.02603
 966.36; 6609.917;  208.483; 6323.783;-0.01986
 966.92; 6607.250;  216.150; 6305.117;-0.02103
 967.47; 6628.250;  218.483; 6338.117;-0.02012
 968.02; 6624.250;  232.483; 6354.117;-0.01875
 968.57; 6658.917;  234.817; 6375.450;-0.01960
 969.12; 6708.917;  219.817; 6368.783;-0.02338
 969.67; 6825.583;  204.483; 6420.783;-0.02740
 970.22; 6901.250;  194.150; 6469.783;-0.02888
 970.77; 6961.250;  199.817; 6539.117;-0.02800
 971.32; 6972.583;  197.483; 6593.117;-0.02503
 971.87; 7066.917;  198.817; 6693.117;-0.02430
 972.42; 7181.250;  215.150; 6793.117;-0.02490
 972.98; 7245.917;  220.817; 6908.783;-0.02136
 973.53; 7331.250;  231.483; 6996.117;-0.02100
 974.08; 7405.583;  215.483; 7040.450;-0.02263
 974.63; 7554.583;  223.483; 7078.450;-0.02916
 975.18; 7615.250;  218.483; 7103.117;-0.03116
 975.73; 7679.583;  224.817; 7157.450;-0.03154
 976.28; 7680.250;  221.483; 7219.117;-0.02772
 976.83; 7708.583;  221.483; 7315.450;-0.02342
 977.38; 7763.250;  219.483; 7373.783;-0.02302
 977.93; 7802.250;  222.150; 7387.450;-0.02444
 978.48; 7840.583;  228.483; 7365.783;-0.02797
 979.03; 7814.250;  234.817; 7358.117;-0.02696
 979.58; 7827.917;  221.483; 7329.117;-0.02946
 980.13; 7790.583;  207.150; 7367.783;-0.02491
 980.68; 7747.917;  186.483; 7310.450;-0.02588
 981.23; 7664.250;  185.817; 7278.117;-0.02302
 981.78; 7595.583;  207.150; 7207.450;-0.02344
 982.33; 7569.917;  219.150; 7257.117;-0.01889
 982.88; 7590.583;  232.483; 7211.783;-0.02295
 983.43; 7562.583;  218.150; 7145.783;-0.02537
 983.98; 7476.583;  215.150; 6984.117;-0.03050
 984.53; 7393.583;  203.817; 6873.450;-0.03261
 985.08; 7308.250;  209.817; 6835.783;-0.02991
 985.63; 7233.250;  211.150; 6787.117;-0.02851
 986.18; 7116.583;  218.817; 6756.783;-0.02327
 986.73; 7015.583;  218.483; 6610.450;-0.02669
 987.27; 6941.583;  227.483; 6521.117;-0.02809
 987.82; 6898.917;  238.483; 6431.783;-0.03158
 988.37; 6817.250;  243.150; 6400.783;-0.02842
 988.92; 6714.250;  234.150; 6351.117;-0.02505
 989.47; 6601.917;  214.483; 6285.117;-0.02209
 990.02; 6515.583;  208.483; 6199.117;-0.02236
 990.57; 6491.583;  208.150; 6083.117;-0.02919
 991.12; 6405.917;  215.150; 6044.450;-0.02613
 991.67; 6346.583;  213.817; 5969.117;-0.02759
 992.22; 6188.917;  200.483; 5915.450;-0.02030
 992.77; 6090.583;  200.150; 5802.450;-0.02178
 993.31; 6011.250;  204.817; 5735.783;-0.02111
 993.86; 5969.250;  230.483; 5683.783;-0.02216
 994.41; 5883.583;  235.150; 5580.117;-0.02398
 994.96; 5721.917;  226.483; 5473.117;-0.02012
 995.51; 5603.917;  218.817; 5377.783;-0.01863
 996.06; 5476.917;  208.483; 5293.783;-0.01536
 996.61; 5430.583;  222.483; 5201.783;-0.01951
 997.15; 5303.917;  236.150; 5083.450;-0.01932
 997.70; 5200.917;  241.150; 4965.117;-0.02115
 998.25; 5107.250;  247.483; 4873.450;-0.02141
 998.80; 4998.250;  248.483; 4740.117;-0.02427
 999.35; 4855.917;  249.483; 4623.450;-0.02249
 999.90; 4649.917;  236.150; 4455.117;-0.01960
1000.44; 4479.250;  224.483; 4340.450;-0.01440
1000.99; 4362.250;  232.483; 4190.783;-0.01842
1001.54; 4225.250;  237.150; 4067.450;-0.01753
1002.09; 4098.583;  231.817; 3939.117;-0.01829
1002.64; 3989.583;  238.483; 3855.450;-0.01581
1003.18; 3939.583;  240.483; 3766.783;-0.02078
1003.73; 3859.917;  238.483; 3661.450;-0.02448
1004.28; 3774.917;  226.817; 3584.450;-0.02396
1004.83; 3668.250;  209.483; 3488.117;-0.02323
1005.38; 3608.250;  210.150; 3420.783;-0.02465
1005.92; 3549.917;  219.150; 3321.783;-0.03081
1006.47; 3465.917;  236.817; 3231.783;-0.03269
1007.02; 3380.250;  235.483; 3140.117;-0.03450
1007.57; 3289.583;  222.817; 3087.450;-0.02961
1008.11; 3235.583;  211.817; 3028.450;-0.03082
1008.66; 3152.917;  205.150; 2973.450;-0.02728
1009.21; 3096.250;  192.483; 2907.783;-0.02914
1009.75; 3015.583;  177.817; 2862.117;-0.02415
1010.30; 2930.250;  170.150; 2793.117;-0.02213
1010.85; 2794.583;  176.817; 2712.783;-0.01379
1011.40; 2698.583;  204.150; 2628.450;-0.01239
1011.94; 2661.583;  221.817; 2545.783;-0.02112
1012.49; 2629.250;  216.483; 2464.450;-0.03073
1013.04; 2544.583;  194.150; 2362.117;-0.03510
1013.58; 2428.250;  184.150; 2325.117;-0.02043
1014.13; 2332.250;  188.483; 2268.117;-0.01319
1014.68; 2283.583;  196.483; 2233.450;-0.01056
1015.23; 2227.917;  203.150; 2181.450;-0.01008
1015.77; 2179.583;  199.817; 2113.117;-0.01483
1016.32; 2146.917;  204.817; 2072.450;-0.01698
1016.87; 2115.583;  209.483; 2012.783;-0.02408
1017.41; 2065.250;  206.817; 1977.450;-0.02102
1017.96; 1980.583;  194.817; 1953.450;-0.00665
1018.50; 1940.583;  186.483; 1926.450;-0.00351
1019.05; 1909.583;  188.483; 1903.450;-0.00155
1019.60; 1873.917;  182.817; 1815.783;-0.01519
1020.14; 1821.250;  196.150; 1752.783;-0.01869
1020.69; 1770.917;  196.150; 1698.117;-0.02056
1021.24; 1763.583;  209.483; 1650.450;-0.03283
1021.78; 1728.917;  188.483; 1620.450;-0.03171
1022.33; 1667.583;  190.150; 1592.450;-0.02267
1022.87; 1605.917;  182.817; 1587.783;-0.00557
1023.42; 1569.250;  198.150; 1567.117;-0.00068
1023.97; 1562.250;  200.150; 1516.117;-0.01496
1024.51; 1531.583;  212.150; 1465.117;-0.02245
1025.06; 1465.583;  200.483; 1401.117;-0.02271
1025.60; 1418.917;  198.817; 1340.783;-0.02874
1026.15; 1370.583;  181.150; 1307.783;-0.02356
1026.70; 1358.583;  185.483; 1284.783;-0.02822
1027.24; 1338.583;  195.483; 1279.783;-0.02293
1027.79; 1331.583;  200.483; 1270.450;-0.02413
1028.33; 1299.583;  197.483; 1252.450;-0.01898
1028.88; 1265.917;  188.817; 1215.450;-0.02084
1029.42; 1220.583;  208.150; 1198.450;-0.00960
1029.97; 1208.583;  197.817; 1156.450;-0.02300
1030.51; 1190.583;  190.150; 1127.117;-0.02846
1031.06; 1187.917;  182.817; 1088.783;-0.04510
1031.61; 1174.917;  192.483; 1063.117;-0.05247
1032.15; 1150.250;  210.150; 1050.450;-0.04874
1032.70; 1130.250;  202.817; 1024.117;-0.05278
1033.24; 1079.250;  206.483; 1018.117;-0.03154
1033.79; 1057.250;  200.817; 1020.450;-0.01907
1034.33; 1025.583;  199.817; 1016.450;-0.00483
1034.88; 1021.917;  201.817; 1008.783;-0.00701
1035.42; 1018.583;  202.817;  979.450;-0.02135
1035.97; 1007.583;  204.483;  950.450;-0.03205
1036.51; 1009.250;  206.483;  931.450;-0.04427
1037.06;  986.583;  200.817;  944.117;-0.02413
1037.60; 1002.917;  207.150;  948.783;-0.03060
1038.14;  999.250;  204.150;  928.783;-0.04030
1038.69; 1014.583;  222.150;  927.783;-0.05038
1039.23; 1007.917;  234.483;  935.783;-0.04252
1039.78;  993.917;  235.150;  948.783;-0.02663
1040.32;  963.250;  224.483;  915.783;-0.02884
1040.87;  927.583;  208.483;  887.117;-0.02515
1041.41;  922.583;  198.150;  864.117;-0.03655
1041.96;  919.917;  200.817;  882.783;-0.02303
1042.50;  926.917;  197.817;  893.117;-0.02061
1043.04;  914.917;  213.817;  899.117;-0.00990
1043.59;  919.250;  217.150;  867.450;-0.03329
1044.13;  913.917;  212.483;  869.450;-0.02844
1044.68;  920.583;  205.817;  862.117;-0.03706
1045.22;  920.583;  199.150;  873.783;-0.02913
1045.76;  923.250;  201.817;  869.450;-0.03366
1046.31;  906.917;  193.483;  861.783;-0.02838
1046.85;  881.583;  200.483;  842.117;-0.02592
1047.40;  860.250;  202.483;  813.783;-0.03182
1047.94;  850.917;  215.150;  808.783;-0.02978
1048.48;  836.917;  211.150;  810.117;-0.01901
1049.03;  820.250;  214.483;  793.450;-0.01965
1049.57;  824.250;  229.150;  787.117;-0.02798
1050.11;  840.917;  222.817;  774.117;-0.04967
1050.66;  833.583;  218.483;  779.117;-0.04027
1051.20;  816.583;  206.483;  794.450;-0.01605
1051.74;  784.917;  200.817;  788.117; 0.00237
1052.29;  773.583;  200.150;  780.783; 0.00542
1052.83;  784.583;  199.150;  748.117;-0.02793
1053.37;  807.583;  224.817;  744.783;-0.04952
1053.92;  812.917;  234.150;  739.783;-0.05867
1054.46;  800.250;  236.483;  734.117;-0.05419
1055.00;  793.917;  231.483;  739.117;-0.04452
1055.55;  775.583;  230.817;  738.117;-0.03095
1056.09;  759.917;  223.817;  747.783;-0.00994
1056.63;  719.917;  215.817;  711.783;-0.00706
1057.17;  727.583;  216.483;  709.117;-0.01598
1057.72;  731.583;  225.150;  697.450;-0.03030
1058.26;  729.917;  223.483;  705.783;-0.02121
1058.80;  709.917;  229.817;  700.450;-0.00865
1059.35;  677.917;  230.483;  686.450; 0.00820
1059.89;  671.583;  230.150;  672.450; 0.00085
1060.43;  664.250;  227.817;  654.783;-0.00952
1060.97;  647.583;  223.817;  667.117; 0.01957
1061.52;  663.583;  231.150;  682.450; 0.01855
1062.06;  662.250;  231.483;  671.450; 0.00918
1062.60;  664.917;  236.483;  658.450;-0.00661
1063.14;  648.583;  232.483;  640.783;-0.00822
1063.69;  635.583;  216.483;  640.117; 0.00467
1064.23;  635.583;  208.817;  619.783;-0.01638
1064.77;  625.583;  200.483;  598.450;-0.02864
1065.31;  612.917;  201.817;  577.450;-0.03918
1065.85;  608.250;  206.483;  567.117;-0.04691
1066.40;  601.917;  205.150;  579.450;-0.02532
1066.94;  611.917;  217.817;  579.117;-0.03774
1067.48;  609.583;  209.150;  587.783;-0.02431
1068.02;  611.250;  233.817;  562.450;-0.06013
1068.56;  603.583;  216.817;  564.783;-0.04591
1069.10;  592.917;  212.817;  549.783;-0.05231
1069.65;  570.583;  195.817;  566.450;-0.00482
1070.19;  564.917;  208.817;  566.783; 0.00227
1070.73;  560.583;  223.817;  582.783; 0.02773
1071.27;  573.917;  215.817;  567.117;-0.00833
1071.81;  575.250;  207.150;  562.117;-0.01578
1072.35;  583.917;  201.817;  549.117;-0.04147
1072.90;  563.250;  197.150;  546.783;-0.01999
1073.44;  556.917;  202.817;  540.117;-0.02111
1073.98;  552.250;  206.150;  531.450;-0.02692
1074.52;  563.583;  224.483;  538.783;-0.03298
1075.06;  549.917;  218.483;  542.450;-0.00990
1075.60;  530.250;  207.483;  531.450; 0.00161
1076.14;  542.250;  204.817;  514.117;-0.03781
1076.68;  557.917;  207.150;  504.450;-0.07182
1077.22;  560.917;  225.817;  504.783;-0.07962
1077.76;  534.917;  214.817;  498.117;-0.05304
1078.31;  531.250;  229.817;  499.783;-0.04788
1078.85;  533.917;  226.483;  517.117;-0.02441
1079.39;  542.917;  243.817;  525.450;-0.02613
1079.93;  523.583;  237.817;  507.783;-0.02470
1080.47;  525.250;  227.483;  476.450;-0.07773
1081.01;  518.250;  216.150;  474.783;-0.06747
1081.55;  537.583;  208.483;  488.783;-0.06970
1082.09;  542.917;  205.817;  488.783;-0.07602
1082.63;  537.917;  210.150;  496.450;-0.05874
1083.17;  535.583;  221.150;  500.783;-0.05094
1083.71;  517.250;  228.817;  501.450;-0.02447
1084.25;  505.583;  224.483;  471.117;-0.05681
1084.79;  483.583;  214.483;  446.450;-0.06449
1085.33;  473.917;  202.817;  450.783;-0.03874
1085.87;  472.583;  199.483;  468.450;-0.00662
1086.41;  488.583;  214.483;  471.450;-0.02803
1086.95;  495.250;  222.150;  467.117;-0.04721
1087.49;  505.583;  225.817;  454.783;-0.08702
1088.03;  500.917;  216.817;  454.117;-0.07817
1088.57;  492.250;  219.817;  450.783;-0.07171
1089.11;  471.583;  222.150;  448.117;-0.04291
1089.65;  476.250;  233.150;  458.783;-0.03238
1090.19;  477.583;  238.483;  468.117;-0.01754
1090.73;  481.917;  240.483;  471.783;-0.01862
1091.27;  463.583;  238.817;  466.117; 0.00487
1091.81;  461.250;  238.483;  458.117;-0.00615
1092.35;  460.250;  247.483;  461.450; 0.00244
1092.89;  458.250;  232.150;  457.450;-0.00154
1093.43;  475.583;  223.817;  445.783;-0.05471
1093.97;  476.583;  210.150;  441.117;-0.06204
1094.51;  472.583;  208.483;  440.450;-0.05634
1095.04;  456.917;  218.483;  442.783;-0.02654
1095.58;  467.250;  238.817;  436.783;-0.06217
1096.12;  467.917;  242.817;  428.783;-0.08294
1096.66;  470.250;  239.817;  430.450;-0.08235
1097.20;  458.250;  235.817;  449.450;-0.01753
1097.74;  453.250;  246.817;  456.783; 0.00737
1098.28;  447.250;  235.817;  457.117; 0.01981
1098.82;  447.583;  230.483;  453.117; 0.01093
1099.36;  451.250;  228.150;  446.450;-0.00945
1099.89;  450.583;  230.150;  447.450;-0.00622

