
Integration time [ms]:   0.300
Averaging Nr. [scans]: 1
Smoothing Nr. [pixels]: 1
Data measured with spectrometer [name]: 1906252U1
Wave   ;Sample   ;Dark     ;Reference;Absorbance
[nm]   ;[counts] ;[counts] ;[counts] ;[A.U]

 161.30;  284.301;  271.207;  271.637; 0.00000
 161.90;  279.665;  265.524;  261.712; 0.00000
 162.51;  280.037;  259.038;  260.433;-1.17787
 163.11;  278.448;  265.693;  251.834; 0.00000
 163.71;  273.412;  276.696;  266.803; 0.00000
 164.31;  273.751;  294.270;  273.488; 0.00000
 164.91;  284.347;  288.393;  287.410; 0.00000
 165.52;  283.546;  277.299;  279.261;-0.50302
 166.12;  280.025;  271.979;  273.718;-0.66544
 166.72;  268.733;  272.971;  259.755; 0.00000
 167.32;  279.680;  271.656;  271.040; 0.00000
 167.93;  269.839;  261.266;  267.518;-0.13713
 168.53;  272.277;  254.112;  260.296;-0.46800
 169.13;  270.900;  264.427;  257.261; 0.00000
 169.73;  281.991;  271.677;  266.351; 0.00000
 170.33;  311.450;  291.614;  320.561; 0.16414
 170.94;  325.473;  317.756;  347.746; 0.58949
 171.54;  345.528;  335.278;  387.239; 0.70497
 172.14;  341.818;  338.926;  375.538; 1.10246
 172.74;  340.139;  324.358;  373.181; 0.49047
 173.34;  332.520;  319.589;  355.569; 0.44442
 173.95;  328.545;  309.596;  343.923; 0.25805
 174.55;  336.850;  318.289;  355.228; 0.29888
 175.15;  337.776;  320.689;  367.155; 0.43447
 175.75;  334.492;  322.370;  380.195; 0.67854
 176.35;  340.981;  332.415;  382.036; 0.76290
 176.95;  358.496;  327.740;  392.907; 0.32609
 177.56;  374.608;  327.608;  398.355; 0.17761
 178.16;  363.229;  316.738;  399.298; 0.24940
 178.76;  359.100;  316.306;  398.487; 0.28339
 179.36;  354.971;  310.874;  401.343; 0.31209
 179.96;  355.450;  304.800;  395.813; 0.25452
 180.56;  354.933;  308.938;  392.969; 0.26173
 181.17;  359.727;  318.009;  403.448; 0.31133
 181.77;  370.452;  318.897;  417.181; 0.28021
 182.37;  373.386;  306.653;  404.111; 0.16448
 182.97;  394.731;  319.309;  413.789; 0.09784
 183.57;  399.892;  323.525;  427.944; 0.13588
 184.17;  429.725;  336.736;  473.104; 0.16628
 184.78;  428.547;  316.624;  484.587; 0.17629
 185.38;  433.454;  315.012;  504.833; 0.20484
 185.98;  440.911;  315.783;  504.638; 0.17877
 186.58;  460.716;  316.598;  510.449; 0.12875
 187.18;  466.272;  313.002;  491.678; 0.06661
 187.78;  475.661;  324.256;  526.070; 0.12481
 188.38;  463.085;  331.840;  541.159; 0.20273
 188.98;  487.458;  337.804;  574.199; 0.19855
 189.59;  487.138;  332.575;  567.529; 0.18188
 190.19;  488.007;  326.870;  580.708; 0.19736
 190.79;  472.229;  326.914;  573.939; 0.23043
 191.39;  468.895;  317.159;  564.285; 0.21183
 191.99;  474.653;  322.498;  545.363; 0.16575
 192.59;  475.560;  317.307;  539.929; 0.14822
 193.19;  457.660;  313.765;  525.712; 0.16818
 193.79;  458.556;  325.164;  530.280; 0.18687
 194.39;  451.956;  328.250;  517.658; 0.18501
 195.00;  457.122;  327.216;  511.139; 0.15101
 195.60;  441.706;  305.566;  480.732; 0.10947
 196.20;  415.768;  304.088;  469.473; 0.17052
 196.80;  389.624;  305.278;  453.989; 0.24628
 197.40;  391.479;  313.686;  455.186; 0.25982
 198.00;  400.407;  320.693;  452.457; 0.21826
 198.60;  399.236;  317.270;  442.943; 0.18561
 199.20;  384.817;  312.435;  427.513; 0.20136
 199.80;  378.073;  303.957;  416.753; 0.18238
 200.40;  377.185;  299.492;  396.868; 0.09807
 201.00;  347.738;  293.841;  371.434; 0.15826
 201.60;  327.702;  292.845;  340.403; 0.13493
 202.21;  327.870;  298.995;  352.240; 0.26575
 202.81;  336.859;  303.760;  367.883; 0.28720
 203.41;  344.910;  301.801;  377.921; 0.24693
 204.01;  327.599;  296.447;  373.611; 0.39392
 204.61;  321.461;  287.965;  374.799; 0.41370
 205.21;  329.004;  280.528;  391.328; 0.35901
 205.81;  337.584;  276.000;  394.567; 0.28449
 206.41;  342.677;  281.190;  389.667; 0.24655
 207.01;  323.512;  291.585;  373.516; 0.40929
 207.61;  301.543;  290.832;  349.221; 0.73653
 208.21;  305.749;  294.007;  340.088; 0.59377
 208.81;  313.709;  285.376;  350.048; 0.35843
 209.41;  324.929;  292.971;  355.294; 0.29006
 210.01;  313.785;  286.985;  361.835; 0.44605
 210.61;  318.280;  290.534;  351.990; 0.34537
 211.21;  309.524;  293.399;  356.219; 0.59060
 211.81;  314.584;  300.157;  352.258; 0.55767
 212.41;  300.505;  301.896;  344.513; 5.00000
 213.01;  305.264;  296.332;  351.625; 0.79169
 213.61;  304.975;  285.263;  357.339; 0.56306
 214.21;  311.726;  282.939;  368.411; 0.47263
 214.81;  320.381;  278.704;  361.387; 0.29752
 215.41;  326.976;  282.466;  362.645; 0.25560
 216.01;  316.518;  278.247;  362.189; 0.34111
 216.61;  300.446;  287.920;  357.792; 0.74651
 217.21;  288.702;  290.599;  357.391; 5.00000
 217.81;  299.783;  297.221;  367.800; 1.44007
 218.41;  317.400;  301.628;  379.081; 0.69115
 219.01;  331.147;  307.801;  388.505; 0.53869
 219.61;  329.548;  301.739;  384.906; 0.47576
 220.21;  321.832;  297.568;  378.507; 0.52319
 220.81;  310.378;  283.737;  372.713; 0.52373
 221.41;  317.022;  284.091;  376.024; 0.44587
 222.01;  312.718;  280.426;  372.049; 0.45291
 222.61;  329.109;  298.953;  367.451; 0.35631
 223.21;  323.736;  301.813;  357.103; 0.40175
 223.81;  332.315;  301.952;  360.676; 0.28646
 224.41;  314.290;  281.875;  343.618; 0.27984
 225.01;  314.268;  269.317;  340.250; 0.19812
 225.61;  311.035;  274.108;  341.033; 0.25825
 226.21;  314.569;  273.112;  349.918; 0.26780
 226.81;  312.154;  286.490;  349.175; 0.38784
 227.41;  322.596;  284.059;  344.282; 0.19388
 228.01;  336.234;  302.172;  351.241; 0.15854
 228.61;  349.485;  306.727;  360.474; 0.09933
 229.21;  335.377;  303.825;  362.700; 0.27090
 229.81;  331.457;  308.998;  372.791; 0.45338
 230.41;  328.061;  299.055;  383.396; 0.46355
 231.01;  322.601;  300.808;  405.942; 0.68342
 231.61;  308.419;  287.307;  401.095; 0.73156
 232.21;  315.826;  300.328;  383.489; 0.72963
 232.81;  323.279;  296.307;  370.928; 0.44195
 233.41;  339.014;  302.578;  372.995; 0.28615
 234.00;  327.256;  298.240;  379.918; 0.44946
 234.60;  322.953;  290.487;  363.623; 0.35269
 235.20;  316.923;  295.152;  359.264; 0.46905
 235.80;  313.094;  295.330;  365.432; 0.59619
 236.40;  317.046;  302.765;  379.044; 0.72764
 237.00;  311.482;  303.584;  384.824; 1.01224
 237.60;  300.295;  294.000;  377.651; 1.12350
 238.20;  304.861;  295.121;  389.214; 0.98500
 238.80;  296.332;  274.112;  389.668; 0.71604
 239.40;  321.088;  279.177;  403.402; 0.47189
 240.00;  332.658;  284.599;  402.640; 0.39026
 240.59;  352.643;  298.133;  401.312; 0.27712
 241.19;  347.736;  297.989;  399.745; 0.31080
 241.79;  331.042;  288.710;  384.715; 0.35562
 242.39;  331.243;  292.222;  383.909; 0.37101
 242.99;  339.783;  286.642;  375.121; 0.22141
 243.59;  336.742;  289.230;  388.763; 0.32117
 244.19;  323.215;  286.160;  385.560; 0.42854
 244.79;  320.991;  287.511;  384.652; 0.46261
 245.39;  332.896;  287.293;  395.554; 0.37548
 245.98;  344.794;  273.053;  391.453; 0.21759
 246.58;  330.953;  274.487;  389.290; 0.30816
 247.18;  335.016;  285.342;  384.364; 0.29960
 247.78;  336.090;  295.696;  398.758; 0.40678
 248.38;  346.499;  288.656;  421.162; 0.35999
 248.98;  324.635;  277.356;  419.988; 0.47954
 249.58;  308.319;  265.673;  430.671; 0.58760
 250.17;  311.508;  275.285;  426.842; 0.62158
 250.77;  333.298;  283.143;  431.967; 0.47236
 251.37;  334.404;  286.929;  425.089; 0.46391
 251.97;  327.467;  270.293;  429.805; 0.44560
 252.57;  328.224;  265.298;  436.882; 0.43565
 253.17;  343.167;  272.929;  449.172; 0.39954
 253.77;  348.616;  284.186;  466.282; 0.45121
 254.36;  339.461;  295.474;  468.774; 0.59548
 254.96;  325.917;  295.333;  480.567; 0.78222
 255.56;  313.985;  288.604;  484.301; 0.88707
 256.16;  324.872;  278.462;  506.509; 0.69142
 256.76;  338.137;  277.524;  496.109; 0.55706
 257.36;  347.970;  276.735;  508.603; 0.51255
 257.95;  341.752;  264.992;  503.713; 0.49276
 258.55;  335.116;  264.239;  518.084; 0.55407
 259.15;  325.824;  260.564;  510.454; 0.58310
 259.75;  326.366;  269.345;  523.998; 0.64991
 260.35;  330.648;  267.461;  538.318; 0.63211
 260.94;  332.064;  268.819;  539.764; 0.63186
 261.54;  329.079;  275.530;  547.771; 0.70621
 262.14;  333.758;  279.723;  553.422; 0.70460
 262.74;  351.523;  296.084;  592.169; 0.72760
 263.34;  347.618;  285.302;  604.600; 0.70960
 263.93;  334.226;  271.414;  619.201; 0.74327
 264.53;  330.807;  269.158;  628.783; 0.76592
 265.13;  333.908;  270.950;  628.566; 0.75436
 265.73;  324.148;  275.426;  648.466; 0.88403
 266.33;  321.425;  278.566;  678.397; 0.96984
 266.92;  303.379;  275.029;  689.673; 1.16512
 267.52;  326.095;  279.954;  705.726; 0.96509
 268.12;  336.294;  273.264;  717.281; 0.84785
 268.72;  347.508;  281.951;  749.175; 0.85291
 269.31;  351.834;  293.596;  782.505; 0.92402
 269.91;  348.692;  296.813;  783.686; 0.97243
 270.51;  367.775;  298.884;  823.747; 0.88188
 271.11;  361.390;  296.018;  844.685; 0.92392
 271.70;  349.046;  281.274;  877.686; 0.94450
 272.30;  340.929;  270.568;  887.924; 0.94320
 272.90;  342.090;  264.784;  909.412; 0.92110
 273.50;  362.216;  274.785;  916.521; 0.86569
 274.09;  355.555;  285.359;  947.539; 0.97466
 274.69;  355.688;  293.425;  961.690; 1.03071
 275.29;  350.715;  297.126; 1011.041; 1.12457
 275.89;  371.868;  301.162; 1057.168; 1.02907
 276.48;  374.420;  306.441; 1108.365; 1.07176
 277.08;  381.064;  303.217; 1149.330; 1.03618
 277.68;  381.987;  300.562; 1156.928; 1.02190
 278.28;  388.784;  297.934; 1188.748; 0.99146
 278.87;  394.913;  305.120; 1219.213; 1.00775
 279.47;  411.066;  316.402; 1279.019; 1.00727
 280.07;  415.254;  311.564; 1306.537; 0.98208
 280.66;  414.184;  305.599; 1329.806; 0.97462
 281.26;  404.322;  299.502; 1356.605; 1.00367
 281.86;  412.850;  299.353; 1408.460; 0.98999
 282.46;  430.718;  289.111; 1464.667; 0.91916
 283.05;  456.903;  270.001; 1525.842; 0.82732
 283.65;  483.977;  269.267; 1577.248; 0.78475
 284.25;  497.726;  276.537; 1628.707; 0.78627
 284.84;  500.819;  297.639; 1660.819; 0.82667
 285.44;  525.705;  304.585; 1722.349; 0.80698
 286.04;  532.326;  306.626; 1767.304; 0.81102
 286.63;  548.889;  299.604; 1827.551; 0.78741
 287.23;  563.925;  285.934; 1878.582; 0.75809
 287.83;  580.995;  285.987; 1956.635; 0.75305
 288.42;  602.167;  282.947; 2012.456; 0.73383
 289.02;  604.390;  281.018; 2081.351; 0.74565
 289.62;  611.716;  274.153; 2105.373; 0.73439
 290.21;  651.557;  278.965; 2173.882; 0.70636
 290.81;  685.860;  296.139; 2171.832; 0.68241
 291.41;  725.639;  301.675; 2217.279; 0.65498
 292.00;  721.616;  287.695; 2273.257; 0.66047
 292.60;  747.612;  266.816; 2355.570; 0.63793
 293.20;  764.987;  269.053; 2441.953; 0.64162
 293.79;  794.887;  275.331; 2498.541; 0.63135
 294.39;  801.129;  284.326; 2544.463; 0.64081
 294.99;  830.107;  280.435; 2588.095; 0.62307
 295.58;  855.324;  284.687; 2619.961; 0.61198
 296.18;  890.603;  271.100; 2672.236; 0.58837
 296.78;  916.890;  267.474; 2741.524; 0.58089
 297.37;  934.605;  256.039; 2819.912; 0.57730
 297.97;  983.470;  255.858; 2927.442; 0.56487
 298.57; 1026.582;  262.727; 2989.557; 0.55265
 299.16; 1098.126;  278.359; 3083.789; 0.53431
 299.76; 1102.035;  281.775; 3176.366; 0.54764
 300.35; 1115.048;  281.214; 3269.362; 0.55432
 300.95; 1132.807;  278.404; 3324.462; 0.55208
 301.55; 1183.505;  287.229; 3346.846; 0.53323
 302.14; 1214.681;  278.314; 3431.366; 0.52729
 302.74; 1248.179;  277.164; 3537.862; 0.52608
 303.33; 1282.567;  277.506; 3665.575; 0.52776
 303.93; 1354.268;  284.053; 3763.621; 0.51205
 304.53; 1418.050;  290.889; 3809.743; 0.49442
 305.12; 1476.724;  285.666; 3889.067; 0.48078
 305.72; 1513.077;  304.345; 3962.749; 0.48096
 306.31; 1545.147;  292.556; 4062.826; 0.47856
 306.91; 1581.224;  290.122; 4183.574; 0.47937
 307.51; 1621.724;  280.000; 4278.734; 0.47426
 308.10; 1686.709;  295.710; 4394.048; 0.46928
 308.70; 1725.387;  291.190; 4468.751; 0.46431
 309.29; 1762.439;  287.634; 4547.826; 0.46069
 309.89; 1784.973;  264.902; 4638.675; 0.45899
 310.48; 1840.082;  273.673; 4739.754; 0.45502
 311.08; 1903.442;  268.620; 4876.118; 0.44999
 311.68; 1928.020;  273.221; 4959.384; 0.45207
 312.27; 1973.588;  278.703; 5074.278; 0.45170
 312.87; 2013.836;  271.869; 5225.848; 0.45391
 313.46; 2090.666;  276.691; 5385.013; 0.44965
 314.06; 2154.878;  276.193; 5529.885; 0.44661
 314.65; 2230.559;  282.238; 5632.559; 0.43872
 315.25; 2293.597;  283.262; 5774.255; 0.43638
 315.85; 2321.885;  277.637; 5914.876; 0.44053
 316.44; 2371.948;  287.913; 6071.938; 0.44333
 317.04; 2457.336;  295.255; 6216.984; 0.43758
 317.63; 2580.014;  310.823; 6400.341; 0.42871
 318.23; 2635.948;  298.737; 6546.296; 0.42701
 318.82; 2685.546;  293.221; 6674.883; 0.42611
 319.42; 2731.217;  273.276; 6781.545; 0.42289
 320.01; 2807.298;  280.055; 6929.646; 0.42015
 320.61; 2874.324;  290.511; 7164.652; 0.42496
 321.20; 2942.311;  285.758; 7272.939; 0.41998
 321.80; 3013.071;  292.860; 7497.718; 0.42302
 322.39; 3051.857;  275.154; 7636.540; 0.42343
 322.99; 3083.531;  275.755; 7857.556; 0.43141
 323.58; 3157.531;  286.597; 7977.531; 0.42796
 324.18; 3257.692;  287.901; 8124.673; 0.42141
 324.77; 3348.020;  292.485; 8318.013; 0.41939
 325.37; 3424.838;  278.984; 8442.167; 0.41412
 325.96; 3484.639;  276.253; 8588.958; 0.41346
 326.56; 3579.773;  298.768; 8771.095; 0.41200
 327.15; 3625.114;  300.036; 8947.778; 0.41510
 327.75; 3721.870;  300.925; 9129.536; 0.41175
 328.34; 3774.521;  272.723; 9291.838; 0.41087
 328.94; 3872.934;  266.072; 9447.905; 0.40580
 329.53; 3933.239;  277.765; 9658.876; 0.40931
 330.13; 4036.476;  293.098; 9872.460; 0.40807
 330.72; 4089.556;  297.428;10112.576; 0.41301
 331.32; 4185.711;  296.807;10347.750; 0.41238
 331.91; 4285.368;  286.021;10578.045; 0.41051
 332.51; 4415.451;  290.846;10832.428; 0.40752
 333.10; 4481.712;  280.941;11112.686; 0.41137
 333.69; 4525.891;  268.720;11343.870; 0.41523
 334.29; 4531.657;  259.020;11372.294; 0.41515
 334.88; 4584.263;  263.526;11404.218; 0.41135
 335.48; 4612.879;  274.151;11347.513; 0.40692
 336.07; 4639.393;  277.361;11521.065; 0.41122
 336.67; 4666.759;  271.793;11561.792; 0.40974
 337.26; 4714.039;  270.478;11724.744; 0.41124
 337.86; 4802.063;  274.661;11795.073; 0.40562
 338.45; 4891.226;  285.081;11996.201; 0.40526
 339.04; 4919.074;  280.248;12122.714; 0.40703
 339.64; 4997.851;  279.247;12324.855; 0.40702
 340.23; 5008.208;  276.541;12444.594; 0.41021
 340.83; 5103.947;  283.446;12579.002; 0.40666
 341.42; 5101.751;  284.034;12728.085; 0.41212
 342.02; 5147.394;  280.810;12860.717; 0.41245
 342.61; 5159.134;  285.029;12994.842; 0.41624
 343.20; 5252.299;  280.703;13173.363; 0.41385
 343.80; 5342.139;  275.024;13326.514; 0.41090
 344.39; 5436.084;  277.525;13574.777; 0.41123
 344.99; 5474.891;  284.701;13698.586; 0.41237
 345.58; 5546.304;  281.629;13941.331; 0.41407
 346.17; 5580.925;  272.425;14086.941; 0.41536
 346.77; 5638.495;  263.601;14425.499; 0.42075
 347.36; 5733.743;  267.766;14640.403; 0.41987
 347.96; 5851.417;  271.456;14918.073; 0.41911
 348.55; 5960.745;  272.039;15018.413; 0.41367
 349.14; 5996.256;  269.152;15148.264; 0.41464
 349.74; 6066.974;  282.193;15379.635; 0.41662
 350.33; 6174.294;  292.264;15619.281; 0.41593
 350.92; 6251.090;  292.029;15990.758; 0.42069
 351.52; 6338.039;  276.988;16197.719; 0.41942
 352.11; 6419.687;  277.642;16449.038; 0.42043
 352.70; 6512.116;  293.221;16652.467; 0.42005
 353.30; 6576.347;  299.069;16923.354; 0.42297
 353.89; 6606.813;  289.556;17199.826; 0.42762
 354.49; 6719.437;  295.537;17471.125; 0.42711
 355.08; 6800.224;  303.789;17648.240; 0.42649
 355.67; 6937.864;  306.509;17850.877; 0.42254
 356.27; 7020.077;  292.678;18013.082; 0.42063
 356.86; 7171.376;  288.376;18230.048; 0.41609
 357.45; 7261.325;  297.756;18507.331; 0.41747
 358.05; 7356.285;  297.214;18684.613; 0.41577
 358.64; 7349.967;  292.504;18894.298; 0.42091
 359.23; 7415.491;  289.300;19081.825; 0.42113
 359.83; 7466.387;  289.121;19433.380; 0.42608
 360.42; 7573.931;  293.174;19722.600; 0.42628
 361.01; 7624.495;  287.355;19981.487; 0.42881
 361.61; 7688.559;  287.502;20183.522; 0.42947
 362.20; 7785.091;  294.987;20496.718; 0.43090
 362.79; 7887.317;  302.910;20634.303; 0.42825
 363.38; 7954.514;  301.613;20815.514; 0.42822
 363.98; 8011.063;  289.171;20943.715; 0.42729
 364.57; 8086.832;  277.744;21176.149; 0.42751
 365.16; 8174.827;  288.573;21351.502; 0.42665
 365.76; 8292.935;  293.720;21537.287; 0.42418
 366.35; 8376.542;  294.920;21731.542; 0.42366
 366.94; 8410.478;  286.459;21913.791; 0.42523
 367.53; 8419.815;  286.426;22067.466; 0.42781
 368.13; 8395.160;  291.994;22246.489; 0.43287
 368.72; 8474.959;  285.482;22413.295; 0.43168
 369.31; 8524.351;  292.281;22597.374; 0.43289
 369.91; 8635.177;  283.382;22746.877; 0.42970
 370.50; 8700.720;  291.699;22820.059; 0.42798
 371.09; 8780.597;  278.017;22946.909; 0.42588
 371.68; 8846.351;  286.967;23106.324; 0.42586
 372.28; 8953.268;  294.984;23340.584; 0.42516
 372.87; 9011.180;  297.367;23443.502; 0.42427
 373.46; 9050.951;  297.723;23614.255; 0.42550
 374.05; 9079.199;  287.889;23758.158; 0.42646
 374.65; 9109.864;  290.440;23950.173; 0.42857
 375.24; 9210.372;  272.918;24146.349; 0.42670
 375.83; 9266.385;  275.848;24331.370; 0.42743
 376.42; 9318.556;  273.516;24515.563; 0.42816
 377.02; 9354.160;  293.907;24527.502; 0.42728
 377.61; 9434.665;  288.112;24762.668; 0.42746
 378.20; 9586.129;  297.747;24944.118; 0.42381
 378.79; 9636.900;  297.015;25086.217; 0.42392
 379.38; 9739.470;  282.191;25204.109; 0.42082
 379.98; 9854.843;  267.243;25344.469; 0.41757
 380.57;10031.762;  272.112;25606.751; 0.41428
 381.16;10097.787;  291.609;25727.129; 0.41394
 381.75;10098.476;  289.589;25767.151; 0.41454
 382.35;10136.588;  283.703;25937.612; 0.41559
 382.94;10256.009;  271.231;26182.039; 0.41414
 383.53;10370.734;  279.541;26558.760; 0.41567
 384.12;10487.283;  269.432;26865.627; 0.41546
 384.71;10572.681;  284.069;27028.687; 0.41488
 385.31;10698.861;  287.699;27353.893; 0.41493
 385.90;10785.730;  299.731;27598.110; 0.41553
 386.49;10966.959;  283.306;27919.987; 0.41277
 387.08;11079.586;  296.763;28085.602; 0.41114
 387.67;11236.577;  302.047;28384.267; 0.40963
 388.26;11380.389;  312.463;28670.094; 0.40860
 388.86;11529.390;  297.866;29041.131; 0.40810
 389.45;11605.870;  285.685;29324.329; 0.40912
 390.04;11713.691;  279.860;29566.863; 0.40848
 390.63;11839.120;  284.795;29878.048; 0.40845
 391.22;12025.438;  294.422;30097.179; 0.40492
 391.81;12131.868;  303.408;30368.117; 0.40513
 392.41;12295.178;  324.211;30517.642; 0.40178
 393.00;12473.890;  349.022;30747.606; 0.39918
 393.59;12602.549;  379.676;31111.212; 0.40041
 394.18;12771.868;  399.780;31505.223; 0.40039
 394.77;12834.474;  433.703;31930.599; 0.40482
 395.36;12950.072;  473.557;32244.356; 0.40593
 395.95;13031.543;  524.323;32561.017; 0.40849
 396.55;13272.441;  566.236;32856.406; 0.40505
 397.14;13431.654;  594.577;33298.717; 0.40614
 397.73;13676.223;  601.786;33627.642; 0.40243
 398.32;13835.093;  612.294;34204.404; 0.40491
 398.91;14091.289;  621.039;34614.988; 0.40203
 399.50;14272.467;  632.059;35200.379; 0.40385
 400.09;14526.327;  605.452;35675.306; 0.40127
 400.68;14841.812;  582.293;36366.134; 0.39958
 401.27;15153.334;  548.561;37014.694; 0.39739
 401.87;15474.222;  525.771;37604.957; 0.39453
 402.46;15714.408;  501.053;38119.893; 0.39318
 403.05;16036.574;  484.389;38675.942; 0.39018
 403.64;16282.448;  490.521;39240.769; 0.38984
 404.23;16503.466;  484.797;39841.080; 0.39039
 404.82;16722.760;  502.588;40438.695; 0.39131
 405.41;17001.240;  491.629;41140.816; 0.39132
 406.00;17379.802;  497.890;41752.976; 0.38806
 406.59;17664.392;  479.966;42383.807; 0.38712
 407.18;17973.038;  482.149;42943.385; 0.38518
 407.77;18213.029;  466.520;43500.038; 0.38469
 408.37;18493.639;  484.641;43973.019; 0.38288
 408.96;18680.138;  491.806;44465.898; 0.38340
 409.55;18813.532;  504.476;44970.283; 0.38536
 410.14;19025.753;  481.626;45459.452; 0.38479
 410.73;19286.777;  490.299;45905.805; 0.38313
 411.32;19570.393;  492.855;46441.730; 0.38175
 411.91;19776.596;  505.687;47060.216; 0.38306
 412.50;19978.708;  480.732;47624.639; 0.38344
 413.09;20222.848;  484.505;48110.411; 0.38253
 413.68;20425.050;  482.467;48573.257; 0.38228
 414.27;20518.378;  487.472;48936.919; 0.38359
 414.86;20572.777;  462.470;49236.309; 0.38477
 415.45;20734.576;  452.555;49687.411; 0.38516
 416.04;21003.594;  462.743;50083.734; 0.38305
 416.63;21245.471;  468.551;50542.275; 0.38203
 417.22;21328.888;  461.867;50754.683; 0.38205
 417.81;21368.363;  462.159;51068.477; 0.38393
 418.40;21530.238;  476.694;51393.675; 0.38354
 418.99;21602.107;  477.832;51737.830; 0.38500
 419.58;21698.369;  462.218;51969.382; 0.38479
 420.17;21833.392;  452.952;52248.392; 0.38427
 420.76;22045.850;  458.593;52499.836; 0.38215
 421.35;22127.782;  472.988;53005.769; 0.38488
 421.94;22021.518;  474.287;53203.501; 0.38866
 422.53;22072.001;  469.601;53402.299; 0.38922
 423.12;22174.882;  471.552;53493.823; 0.38793
 423.71;22352.946;  463.366;53670.857; 0.38574
 424.30;22407.955;  471.573;53819.883; 0.38596
 424.89;22485.420;  477.611;53888.037; 0.38505
 425.48;22462.108;  477.854;53974.356; 0.38621
 426.07;22297.822;  465.438;53940.695; 0.38905
 426.66;22257.990;  460.097;54040.507; 0.39059
 427.25;22205.941;  453.014;53995.096; 0.39118
 427.84;22196.245;  450.549;53912.043; 0.39067
 428.43;22104.982;  452.848;53711.442; 0.39089
 429.02;22001.431;  457.772;53797.552; 0.39373
 429.61;21831.014;  448.720;53826.107; 0.39730
 430.20;21655.699;  425.820;53758.443; 0.40005
 430.79;21555.167;  437.001;53531.580; 0.40039
 431.38;21559.146;  442.471;53315.543; 0.39861
 431.97;21470.394;  451.391;53001.434; 0.39796
 432.55;21249.969;  445.807;52690.011; 0.39989
 433.14;21116.371;  441.412;52704.411; 0.40275
 433.73;20882.380;  432.971;52655.054; 0.40717
 434.32;20774.287;  424.624;52606.263; 0.40896
 434.91;20549.762;  423.161;52233.737; 0.41065
 435.50;20477.900;  418.064;51971.869; 0.40993
 436.09;20278.023;  418.432;51687.970; 0.41189
 436.68;20062.710;  422.559;51624.303; 0.41614
 437.27;19821.884;  439.214;51661.122; 0.42204
 437.86;19657.346;  433.576;51508.561; 0.42437
 438.45;19618.441;  436.794;51330.326; 0.42378
 439.04;19481.751;  419.148;51043.637; 0.42418
 439.62;19250.111;  412.025;51000.963; 0.42902
 440.21;19048.879;  413.441;50885.373; 0.43271
 440.80;18901.376;  430.263;51024.538; 0.43761
 441.39;18865.652;  449.560;51081.161; 0.43922
 441.98;18731.468;  447.874;51020.625; 0.44186
 442.57;18712.436;  436.530;50797.219; 0.44021
 443.16;18547.486;  425.660;50702.578; 0.44317
 443.75;18293.175;  431.481;50788.909; 0.45014
 444.33;18036.651;  435.018;50969.383; 0.45803
 444.92;17896.948;  440.355;50892.685; 0.46092
 445.51;17896.620;  417.614;50850.986; 0.46020
 446.10;17807.879;  410.612;51056.876; 0.46407
 446.69;17717.898;  404.712;51275.545; 0.46809
 447.28;17687.756;  420.929;51457.726; 0.47067
 447.87;17496.754;  412.657;51329.383; 0.47427
 448.45;17340.799;  413.036;51412.748; 0.47897
 449.04;17125.374;  390.874;51445.980; 0.48443
 449.63;17063.363;  386.972;51646.289; 0.48767
 450.22;17018.880;  381.501;51835.467; 0.49033
 450.81;16988.298;  386.090;52100.884; 0.49345
 451.40;16803.224;  391.666;52058.120; 0.49806
 451.98;16700.864;  398.229;52052.065; 0.50084
 452.57;16471.273;  403.856;52211.469; 0.50845
 453.16;16429.159;  401.626;52273.023; 0.51006
 453.75;16324.519;  391.994;52359.708; 0.51345
 454.34;16231.178;  388.814;52215.013; 0.51473
 454.93;16080.880;  395.232;52494.699; 0.52133
 455.51;15906.412;  391.805;52615.216; 0.52712
 456.10;15846.657;  402.670;52907.445; 0.53144
 456.69;15780.598;  396.116;53041.712; 0.53428
 457.28;15683.090;  403.304;53288.203; 0.53921
 457.87;15525.563;  395.902;53216.666; 0.54298
 458.45;15501.625;  396.108;53304.691; 0.54439
 459.04;15428.008;  388.965;53401.373; 0.54716
 459.63;15336.464;  395.666;53676.141; 0.55219
 460.22;15109.130;  396.420;53639.128; 0.55857
 460.80;14984.138;  400.600;53692.823; 0.56280
 461.39;14937.869;  392.483;53895.895; 0.56566
 461.98;14986.454;  393.792;54364.115; 0.56802
 462.57;15001.652;  398.874;54782.941; 0.57104
 463.16;14986.673;  397.668;55197.607; 0.57475
 463.74;14996.277;  387.726;55673.212; 0.57800
 464.33;15001.499;  376.102;56213.777; 0.58182
 464.92;14955.111;  370.427;56547.398; 0.58566
 465.51;14948.431;  357.831;56911.710; 0.58839
 466.09;14998.311;  358.204;57352.888; 0.59029
 466.68;15068.223;  361.518;57898.436; 0.59243
 467.27;15054.761;  372.331;58292.638; 0.59603
 467.86;15014.524;  368.243;58560.733; 0.59914
 468.44;14976.719;  363.094;58919.922; 0.60282
 469.03;14923.619;  361.882;59322.152; 0.60735
 469.62;14973.194;  367.807;59788.037; 0.60942
 470.20;15017.514;  365.300;60231.337; 0.61128
 470.79;15052.706;  374.762;60677.863; 0.61367
 471.38;15014.679;  358.816;61146.166; 0.61780
 471.97;15017.917;  359.020;61564.389; 0.62069
 472.55;15106.881;  350.111;61933.679; 0.62047
 473.14;15193.478;  362.234;62406.602; 0.62152
 473.73;15180.773;  355.473;62971.535; 0.62568
 474.31;15117.714;  347.428;63489.444; 0.63093
 474.90;15059.534;  350.797;63899.238; 0.63553
 475.49;15112.869;  352.737;64160.914; 0.63579
 476.07;15161.595;  357.870;64473.326; 0.63659
 476.66;15163.128;  347.892;64752.829; 0.63821
 477.25;15203.662;  340.581;65000.332; 0.63853
 477.84;15193.196;  352.761;65155.193; 0.64014
 478.42;15130.957;  344.733;65155.945; 0.64179
 479.01;15134.014;  344.681;65156.001; 0.64170
 479.60;15133.531;  330.210;65156.511; 0.64139
 480.18;15166.298;  334.265;65158.257; 0.64054
 480.77;14996.869;  342.135;65159.480; 0.64571
 481.35;14920.428;  347.900;65159.373; 0.64812
 481.94;14915.241;  344.738;65159.188; 0.64820
 482.53;14931.318;  335.059;65159.923; 0.64750
 483.11;14915.780;  332.000;65160.709; 0.64790
 483.70;14810.803;  318.067;65161.719; 0.65072
 484.29;14723.094;  316.585;65163.324; 0.65333
 484.87;14630.327;  306.461;65164.542; 0.65590
 485.46;14577.054;  315.710;65164.272; 0.65774
 486.05;14522.685;  319.958;65162.920; 0.65949
 486.63;14449.681;  321.237;65162.258; 0.66176
 487.22;14394.340;  317.302;65162.909; 0.66337
 487.81;14302.151;  323.288;65164.368; 0.66638
 488.39;14199.925;  331.856;65164.474; 0.66978
 488.98;14061.176;  337.207;65163.733; 0.67427
 489.56;13950.249;  317.228;65164.794; 0.67730
 490.15;13915.846;  310.772;65166.371; 0.67825
 490.74;13800.275;  302.771;65167.454; 0.68175
 491.32;13704.953;  305.937;65168.774; 0.68492
 491.91;13436.922;  316.111;64974.057; 0.69266
 492.49;13305.841;  317.823;64712.314; 0.69531
 493.08;13094.317;  332.939;64167.133; 0.69916
 493.67;12964.400;  325.500;63724.219; 0.70037
 494.25;12814.370;  343.920;63105.848; 0.70181
 494.84;12635.616;  335.724;62474.087; 0.70346
 495.42;12465.621;  338.386;61959.759; 0.70597
 496.01;12244.184;  319.873;61399.648; 0.70946
 496.59;12169.655;  310.443;60754.114; 0.70729
 497.18;12068.024;  311.106;60078.479; 0.70617
 497.77;11939.197;  311.733;59331.632; 0.70551
 498.35;11694.371;  326.966;58841.796; 0.71160
 498.94;11528.119;  324.499;58030.218; 0.71186
 499.52;11405.094;  324.914;57567.186; 0.71317
 500.11;11359.526;  311.275;56906.600; 0.70949
 500.69;11276.501;  304.601;56449.246; 0.70903
 501.28;11171.299;  315.149;55764.708; 0.70822
 501.86;11093.734;  317.653;55155.772; 0.70662
 502.45;11006.019;  338.264;54632.693; 0.70668
 503.03;10891.311;  328.939;54106.656; 0.70684
 503.62;10815.059;  339.385;53665.090; 0.70675
 504.20;10675.610;  326.215;53123.968; 0.70770
 504.79;10638.801;  326.766;52666.148; 0.70548
 505.37;10615.177;  326.582;52358.543; 0.70391
 505.96;10642.058;  332.269;51859.105; 0.69878
 506.55;10720.803;  327.706;51491.158; 0.69221
 507.13;10774.744;  315.837;51254.709; 0.68756
 507.72;10873.109;  312.954;51138.387; 0.68241
 508.30;10929.339;  319.265;50944.634; 0.67865
 508.89;10977.189;  316.460;50626.145; 0.67386
 509.47;11109.441;  308.593;50383.056; 0.66616
 510.05;11209.922;  311.037;50305.214; 0.66154
 510.64;11413.574;  312.992;50205.541; 0.65269
 511.22;11545.178;  326.961;50242.492; 0.64831
 511.81;11741.867;  323.186;50282.527; 0.64100
 512.39;11866.284;  329.747;50266.280; 0.63634
 512.98;12077.125;  310.647;50213.110; 0.62748
 513.56;12217.988;  306.947;50200.284; 0.62209
 514.15;12480.227;  297.484;50225.841; 0.61260
 514.73;12611.056;  293.306;50310.339; 0.60859
 515.32;12875.761;  298.909;50412.714; 0.60039
 515.90;13028.524;  306.909;50529.464; 0.59636
 516.49;13277.340;  321.223;50576.262; 0.58870
 517.07;13546.560;  323.415;50501.804; 0.57918
 517.66;13778.050;  325.663;50468.951; 0.57141
 518.24;13982.541;  330.491;50581.443; 0.56595
 518.82;14086.211;  322.791;50433.118; 0.56120
 519.41;14362.016;  321.449;50483.238; 0.55299
 519.99;14662.078;  304.901;50520.942; 0.54377
 520.58;15049.991;  313.039;50964.514; 0.53618
 521.16;15348.652;  316.114;51139.212; 0.52903
 521.75;15619.584;  315.579;51354.849; 0.52310
 522.33;15852.255;  314.722;51552.832; 0.51821
 522.91;16197.567;  303.280;51724.449; 0.50990
 523.50;16470.879;  304.661;51708.091; 0.50238
 524.08;16761.985;  292.957;51816.521; 0.49534
 524.67;16997.633;  296.699;52029.160; 0.49102
 525.25;17291.447;  294.898;52244.306; 0.48522
 525.83;17612.820;  300.195;52281.679; 0.47749
 526.42;17920.801;  299.604;52255.985; 0.46960
 527.00;18252.805;  297.414;52315.968; 0.46196
 527.59;18510.240;  293.742;52194.390; 0.45471
 528.17;18729.316;  296.702;52169.461; 0.44935
 528.75;19028.973;  314.407;52237.781; 0.44318
 529.34;19247.062;  317.963;52410.206; 0.43964
 529.92;19539.884;  322.096;52599.701; 0.43461
 530.50;19798.278;  308.099;52577.086; 0.42843
 531.09;20147.782;  310.277;52580.588; 0.42077
 531.67;20405.589;  319.699;52493.409; 0.41456
 532.25;20688.142;  331.224;52474.618; 0.40849
 532.84;20883.622;  319.265;52286.406; 0.40261
 533.42;21063.342;  303.579;52069.121; 0.39682
 534.00;21133.497;  296.379;51800.283; 0.39300
 534.59;21310.234;  306.923;51692.027; 0.38855
 535.17;21445.510;  307.396;51484.292; 0.38401
 535.75;21626.923;  311.833;51399.345; 0.37963
 536.34;21774.887;  327.170;51106.314; 0.37430
 536.92;21870.914;  323.362;50970.357; 0.37116
 537.50;22020.597;  320.767;50555.361; 0.36455
 538.09;22139.849;  304.234;50224.272; 0.35911
 538.67;22331.927;  307.957;49849.711; 0.35208
 539.25;22389.780;  292.004;49517.578; 0.34784
 539.84;22568.654;  298.382;49195.084; 0.34155
 540.42;22626.682;  287.620;48747.408; 0.33632
 541.00;22780.216;  304.712;48328.615; 0.32975
 541.59;22791.071;  293.453;47996.146; 0.32641
 542.17;22857.580;  303.713;47681.974; 0.32236
 542.75;22901.371;  301.687;47449.085; 0.31936
 543.33;22923.377;  321.928;47035.436; 0.31531
 543.92;23013.732;  322.791;46647.473; 0.30996
 544.50;23039.266;  319.637;46212.001; 0.30534
 545.08;23143.678;  303.653;45900.067; 0.30023
 545.67;23201.807;  304.594;45544.519; 0.29574
 546.25;23280.220;  306.855;45243.598; 0.29138
 546.83;23386.849;  305.919;44881.223; 0.28584
 547.41;23458.922;  307.185;44485.963; 0.28063
 548.00;23495.040;  304.048;44073.416; 0.27585
 548.58;23462.312;  293.554;43651.340; 0.27216
 549.16;23549.278;  273.252;43462.973; 0.26847
 549.74;23681.646;  276.221;43125.006; 0.26262
 550.33;23736.678;  287.338;42789.017; 0.25828
 550.91;23779.799;  287.502;42328.145; 0.25274
 551.49;23811.699;  275.114;42084.067; 0.24953
 552.07;24004.311;  281.527;41894.675; 0.24406
 552.66;24093.566;  296.715;41696.915; 0.24048
 553.24;24224.789;  301.874;41407.799; 0.23509
 553.82;24271.062;  287.046;41262.389; 0.23260
 554.40;24418.658;  287.502;41018.645; 0.22735
 554.98;24519.526;  286.839;40927.197; 0.22456
 555.57;24699.091;  295.511;40724.442; 0.21924
 556.15;24762.178;  295.794;40729.857; 0.21818
 556.73;24819.522;  289.872;40584.856; 0.21556
 557.31;24924.780;  280.087;40487.094; 0.21258
 557.89;25148.592;  267.680;40402.230; 0.20765
 558.48;25329.177;  270.725;40389.487; 0.20439
 559.06;25586.332;  269.279;40492.969; 0.20107
 559.64;25673.386;  288.172;40421.363; 0.19892
 560.22;25909.509;  308.276;40298.501; 0.19369
 560.80;26005.119;  311.749;40155.433; 0.19054
 561.39;26303.179;  300.174;40123.139; 0.18511
 561.97;26511.184;  304.256;40118.465; 0.18162
 562.55;26728.646;  305.864;40159.584; 0.17849
 563.13;26928.213;  307.652;40244.814; 0.17616
 563.71;27062.383;  295.320;40343.674; 0.17498
 564.29;27242.196;  296.315;40286.513; 0.17146
 564.88;27383.064;  280.495;40218.374; 0.16837
 565.46;27588.815;  277.260;40267.767; 0.16561
 566.04;27713.957;  269.464;40338.574; 0.16435
 566.62;27910.160;  292.162;40520.457; 0.16334
 567.20;28087.713;  292.265;40647.678; 0.16193
 567.78;28266.452;  300.170;40851.754; 0.16137
 568.36;28481.452;  300.837;41002.754; 0.15966
 568.94;28807.230;  296.460;41004.189; 0.15467
 569.53;29216.904;  295.816;41099.192; 0.14948
 570.11;29433.874;  283.902;41113.488; 0.14634
 570.69;29599.641;  278.869;41248.245; 0.14528
 571.27;29607.658;  279.854;41227.262; 0.14495
 571.85;29734.286;  279.584;41295.220; 0.14379
 572.43;29902.970;  299.078;41479.213; 0.14334
 573.01;30167.966;  288.199;41566.526; 0.14034
 573.59;30404.432;  284.931;41522.011; 0.13644
 574.17;30664.372;  270.419;41423.650; 0.13162
 574.76;30884.130;  278.826;41529.098; 0.12963
 575.34;31156.694;  274.920;41725.997; 0.12783
 575.92;31226.222;  271.771;41808.186; 0.12771
 576.50;31402.535;  265.398;41828.507; 0.12543
 577.08;31581.412;  261.206;41866.048; 0.12332
 577.66;31839.743;  250.776;41875.013; 0.11981
 578.24;31834.904;  252.747;41879.155; 0.11993
 578.82;31857.991;  257.942;41897.583; 0.11982
 579.40;31972.284;  266.978;41903.210; 0.11834
 579.98;32265.703;  273.567;41841.961; 0.11372
 580.56;32388.057;  281.852;41853.319; 0.11221
 581.14;32402.237;  291.659;41917.834; 0.11272
 581.72;32438.652;  280.280;42082.244; 0.11390
 582.30;32647.557;  273.151;42074.467; 0.11099
 582.88;32861.375;  274.650;42152.288; 0.10894
 583.46;33031.561;  282.363;42189.821; 0.10709
 584.04;33136.847;  282.956;42171.457; 0.10551
 584.62;33371.200;  265.125;42197.830; 0.10265
 585.21;33600.476;  267.265;42241.428; 0.10010
 585.79;33804.402;  273.754;42392.009; 0.09903
 586.37;33863.368;  277.118;42415.309; 0.09851
 586.95;33988.881;  275.522;42455.787; 0.09731
 587.53;34154.937;  269.979;42469.819; 0.09530
 588.11;34333.699;  278.442;42585.262; 0.09423
 588.69;34492.618;  282.733;42557.865; 0.09193
 589.27;34482.892;  283.424;42506.477; 0.09153
 589.85;34639.027;  276.026;42443.602; 0.08889
 590.43;34738.701;  271.715;42599.939; 0.08923
 591.01;34912.606;  278.076;42722.853; 0.08831
 591.59;35018.695;  288.299;42936.945; 0.08920
 592.16;35123.407;  287.924;42891.657; 0.08743
 592.74;35218.809;  291.617;42886.045; 0.08619
 593.32;35298.401;  293.193;42739.948; 0.08371
 593.90;35373.094;  297.895;42708.966; 0.08248
 594.48;35431.159;  288.777;42603.037; 0.08066
 595.06;35528.915;  285.245;42684.475; 0.08028
 595.64;35637.341;  272.769;42709.242; 0.07917
 596.22;35792.907;  276.890;42757.472; 0.07777
 596.80;35777.398;  268.138;42505.619; 0.07536
 597.38;35734.678;  264.245;42457.558; 0.07538
 597.96;35578.693;  262.869;42299.911; 0.07566
 598.54;35547.185;  268.057;42320.734; 0.07628
 599.12;35648.867;  272.769;42174.074; 0.07352
 599.70;35700.411;  272.156;42133.628; 0.07246
 600.28;35728.655;  269.178;41999.881; 0.07072
 600.86;35619.356;  273.568;41898.236; 0.07101
 601.44;35583.439;  279.130;41816.989; 0.07062
 602.02;35556.767;  273.135;41601.984; 0.06868
 602.59;35494.291;  269.019;41487.164; 0.06823
 603.17;35481.437;  254.435;41427.991; 0.06774
 603.75;35501.129;  264.600;41407.036; 0.06730
 604.33;35507.459;  268.544;41269.041; 0.06577
 604.91;35544.394;  272.574;41056.648; 0.06306
 605.49;35406.822;  271.546;40985.067; 0.06400
 606.07;35338.326;  254.900;40828.877; 0.06315
 606.65;35182.485;  260.422;40696.701; 0.06367
 607.23;35095.572;  264.441;40448.820; 0.06209
 607.80;34964.788;  277.156;40221.379; 0.06128
 608.38;34942.903;  277.256;40025.464; 0.05942
 608.96;34853.784;  285.786;39921.000; 0.05941
 609.54;34591.818;  288.246;39743.725; 0.06077
 610.12;34345.468;  283.928;39528.375; 0.06151
 610.70;34077.394;  273.259;39095.265; 0.06011
 611.28;34051.528;  259.195;38813.390; 0.05725
 611.85;33860.358;  265.841;38433.913; 0.05543
 612.43;33731.724;  260.695;38304.961; 0.05562
 613.01;33457.597;  263.202;38019.161; 0.05592
 613.59;33346.221;  249.299;37795.112; 0.05477
 614.17;33208.515;  240.914;37668.085; 0.05510
 614.75;33066.633;  222.778;37521.205; 0.05524
 615.32;32916.547;  209.277;37291.775; 0.05452
 615.90;32735.000;  219.080;36866.572; 0.05195
 616.48;32549.076;  232.952;36658.988; 0.05199
 617.06;32241.248;  255.157;36308.488; 0.05198
 617.64;32011.902;  246.140;36072.812; 0.05225
 618.22;31768.938;  241.049;35666.522; 0.05062
 618.79;31711.366;  228.178;35515.632; 0.04954
 619.37;31369.749;  227.104;35180.352; 0.05013
 619.95;31183.029;  231.387;34894.600; 0.04919
 620.53;30752.263;  218.869;34491.494; 0.05017
 621.11;30522.713;  206.529;34156.975; 0.04917
 621.68;30348.101;  201.116;33920.700; 0.04864
 622.26;30311.862;  202.843;33803.106; 0.04765
 622.84;30278.801;  212.594;33643.042; 0.04606
 623.42;30064.161;  214.208;33340.072; 0.04522
 623.99;29689.580;  232.130;33128.823; 0.04796
 624.57;29521.627;  239.695;32874.211; 0.04708
 625.15;29294.025;  249.244;32723.283; 0.04847
 625.73;29165.855;  235.066;32483.448; 0.04715
 626.30;28942.203;  228.444;32290.122; 0.04790
 626.88;28887.021;  228.031;32032.596; 0.04523
 627.46;28681.860;  230.061;31766.787; 0.04471
 628.04;28434.275;  242.419;31549.234; 0.04552
 628.61;28235.813;  241.899;31249.103; 0.04440
 629.19;28154.479;  244.829;31015.066; 0.04238
 629.77;27962.176;  231.831;30736.758; 0.04141
 630.35;27813.593;  234.217;30562.869; 0.04127
 630.92;27646.300;  232.092;30375.921; 0.04122
 631.50;27498.840;  220.757;30199.145; 0.04099
 632.08;27160.035;  206.521;29949.680; 0.04277
 632.66;26865.825;  196.801;29744.460; 0.04452
 633.23;26637.454;  216.776;29426.430; 0.04358
 633.81;26528.384;  225.566;29138.020; 0.04108
 634.39;26420.472;  220.298;28844.754; 0.03843
 634.96;26255.514;  221.956;28624.791; 0.03783
 635.54;26094.925;  216.680;28606.896; 0.04023
 636.12;25816.973;  214.735;28334.976; 0.04074
 636.69;25702.600;  204.526;28222.591; 0.04093
 637.27;25432.863;  199.403;27913.834; 0.04073
 637.85;25389.431;  217.219;27696.062; 0.03808
 638.42;25138.690;  206.286;27392.989; 0.03759
 639.00;24883.473;  223.367;27259.457; 0.03995
 639.58;24617.946;  209.789;26981.612; 0.04014
 640.15;24387.156;  222.891;26790.445; 0.04118
 640.73;24276.604;  204.119;26492.226; 0.03824
 641.31;24124.720;  216.013;26471.006; 0.04066
 641.88;23983.502;  210.908;26285.787; 0.04015
 642.46;23866.618;  226.803;26132.901; 0.03976
 643.04;23683.066;  214.697;25934.349; 0.03978
 643.61;23600.515;  223.925;25817.463; 0.03935
 644.19;23541.964;  209.153;25659.577; 0.03773
 644.77;23528.080;  224.048;25468.358; 0.03473
 645.34;23402.862;  211.943;25293.805; 0.03404
 645.92;23236.644;  214.504;25070.586; 0.03329
 646.49;22952.759;  218.399;24938.033; 0.03636
 647.07;22824.208;  220.293;24745.814; 0.03543
 647.65;22612.657;  224.188;24564.928; 0.03631
 648.22;22543.439;  218.082;24391.042; 0.03453
 648.80;22505.888;  227.310;24368.156; 0.03487
 649.37;22510.670;  227.872;24339.937; 0.03426
 649.95;22471.786;  227.433;24242.051; 0.03326
 650.53;22299.235;  209.328;24121.165; 0.03442
 651.10;22092.017;  214.222;24054.279; 0.03730
 651.68;22012.466;  211.450;24020.060; 0.03826
 652.25;21915.581;  221.012;23899.174; 0.03800
 652.83;21922.697;  211.573;23700.955; 0.03419
 653.41;21751.145;  208.468;23524.069; 0.03435
 653.98;21790.928;  212.362;23340.850; 0.03012
 654.56;21673.376;  211.590;23307.630; 0.03187
 655.13;21663.825;  208.818;23285.744; 0.03165
 655.71;21464.274;  207.379;23284.525; 0.03568
 656.28;21428.390;  194.941;23185.639; 0.03453
 656.86;21350.172;  188.169;22962.753; 0.03189
 657.43;21365.287;  190.397;22872.868; 0.02987
 658.01;21393.403;  212.958;22793.315; 0.02780
 658.58;21487.185;  207.519;22876.096; 0.02746
 659.16;21381.300;  211.747;22798.876; 0.02815
 659.74;21278.083;  196.309;22777.324; 0.02984
 660.31;21193.531;  204.203;22714.438; 0.03038
 660.89;21160.314;  198.098;22687.885; 0.03055
 661.46;21029.429;  206.659;22545.999; 0.03053
 662.04;20834.545;  208.554;22516.780; 0.03405
 662.61;20809.660;  207.448;22500.894; 0.03426
 663.19;20951.442;  206.676;22626.342; 0.03372
 663.76;21051.558;  209.571;22600.456; 0.03113
 664.34;21175.673;  211.132;22526.237; 0.02711
 664.91;21154.122;  214.027;22413.684; 0.02537
 665.49;21247.238;  216.922;22441.798; 0.02399
 666.06;21290.686;  213.150;22513.246; 0.02449
 666.64;21382.802;  212.044;22555.693; 0.02342
 667.21;21345.584;  216.606;22500.140; 0.02311
 667.79;21204.366;  204.167;22400.588; 0.02406
 668.36;21077.815;  201.395;22402.702; 0.02672
 668.93;21044.264;  202.290;22421.149; 0.02778
 669.51;21012.379;  198.184;22426.263; 0.02854
 670.08;21082.495;  192.412;22387.044; 0.02631
 670.66;21107.944;  189.307;22273.825; 0.02355
 671.23;21182.059;  213.201;22361.606; 0.02377
 671.81;21139.175;  219.763;22403.720; 0.02549
 672.38;21111.957;  224.324;22501.167; 0.02796
 672.96;21119.072;  213.552;22510.281; 0.02798
 673.53;21101.188;  213.113;22482.395; 0.02781
 674.10;21172.303;  213.008;22524.843; 0.02716
 674.68;21104.086;  228.236;22505.290; 0.02821
 675.25;21089.868;  221.131;22417.404; 0.02678
 675.83;20923.317;  215.692;22370.185; 0.02933
 676.40;20980.432;  203.253;22300.299; 0.02675
 676.98;20977.548;  209.148;22323.413; 0.02727
 677.55;20984.330;  210.043;22281.527; 0.02631
 678.12;20992.112;  223.937;22260.975; 0.02575
 678.70;20990.227;  221.832;22236.089; 0.02530
 679.27;21030.676;  229.060;22163.870; 0.02304
 679.85;20995.125;  216.621;22124.984; 0.02300
 680.42;20950.574;  216.516;22133.431; 0.02410
 680.99;20830.689;  192.744;22099.212; 0.02591
 681.57;20785.805;  198.305;22028.659; 0.02546
 682.14;20759.254;  205.866;21848.773; 0.02243
 682.71;20808.036;  210.761;21795.554; 0.02034
 683.29;20715.818;  200.656;21706.668; 0.02048
 683.86;20572.600;  185.884;21546.116; 0.02026
 684.43;20440.382;  198.112;21362.230; 0.01934
 685.01;20271.831;  197.006;21197.011; 0.01957
 685.58;20258.947;  206.234;21272.458; 0.02141
 686.16;20330.062;  206.462;21269.239; 0.01981
 686.73;20355.178;  215.023;21397.686; 0.02192
 687.30;20396.627;  207.585;21388.467; 0.02083
 687.88;20267.075;  217.479;21321.914; 0.02227
 688.45;20138.858;  210.707;21118.362; 0.02084
 689.02;19994.306;  213.602;21022.142; 0.02200
 689.60;19879.755;  190.497;20889.257; 0.02171
 690.17;19975.871;  199.391;20926.704; 0.02039
 690.74;19885.986;  189.619;20805.485; 0.01982
 691.31;19850.435;  204.181;20824.932; 0.02102
 691.89;19750.217;  191.742;20754.713; 0.02175
 692.46;19736.999;  212.637;20700.494; 0.02092
 693.03;19663.782;  229.198;20611.941; 0.02069
 693.61;19605.564;  234.759;20426.722; 0.01803
 694.18;19498.346;  237.320;20424.503; 0.02040
 694.75;19465.795;  206.882;20414.950; 0.02089
 695.32;19366.577;  208.110;20458.064; 0.02406
 695.90;19318.692;  203.004;20312.512; 0.02201
 696.47;19219.475;  203.899;20210.626; 0.02207
 697.04;19202.590;  214.460;20060.073; 0.01918
 697.62;19180.372;  213.355;20039.187; 0.01923
 698.19;19220.154;  229.250;19951.301; 0.01641
 698.76;19074.937;  211.144;19960.082; 0.01991
 699.33;19032.719;  210.706;19883.196; 0.01919
 699.91;18900.501;  196.600;19795.977; 0.02031
 700.48;18915.283;  206.162;19674.091; 0.01727
 701.05;18876.065;  208.056;19645.538; 0.01754
 701.62;18814.181;  232.951;19536.652; 0.01657
 702.20;18702.630;  235.179;19463.767; 0.01754
 702.77;18545.078;  232.073;19314.881; 0.01788
 703.34;18506.527;  217.301;19303.995; 0.01854
 703.91;18432.976;  214.196;19161.775; 0.01703
 704.48;18402.092;  220.091;19054.223; 0.01530
 705.06;18349.540;  212.652;18964.004; 0.01447
 705.63;18345.989;  221.213;18940.118; 0.01401
 706.20;18350.105;  214.441;18934.565; 0.01378
 706.77;18186.887;  221.336;18864.679; 0.01608
 707.34;18162.336;  215.564;18821.793; 0.01567
 707.92;18006.118;  205.792;18710.907; 0.01686
 708.49;17962.900;  193.353;18575.022; 0.01471
 709.06;17833.682;  193.248;18466.136; 0.01530
 709.63;17802.798;  194.476;18431.916; 0.01525
 710.20;17695.913;  191.037;18446.697; 0.01824
 710.77;17647.029;  187.932;18338.145; 0.01686
 711.35;17689.478;  185.826;18305.592; 0.01502
 711.92;17827.593;  205.721;18271.706; 0.01081
 712.49;17911.042;  207.616;18372.487; 0.01117
 713.06;17917.824;  215.844;18405.934; 0.01181
 713.63;17930.273;  209.405;18498.382; 0.01370
 714.20;17906.722;  212.300;18556.829; 0.01567
 714.78;17791.837;  209.528;18487.277; 0.01685
 715.35;17770.286;  205.756;18407.724; 0.01548
 715.92;17731.068;  207.317;18351.838; 0.01512
 716.49;17845.850;  222.545;18343.285; 0.01209
 717.06;17854.633;  226.106;18273.400; 0.01020
 717.63;17840.748;  217.334;18198.847; 0.00874
 718.20;17750.197;  210.895;18175.294; 0.01040
 718.77;17581.312;  224.790;18170.075; 0.01449
 719.35;17508.095;  226.351;18153.189; 0.01592
 719.92;17386.543;  211.913;18038.303; 0.01618
 720.49;17458.992;  197.474;17879.084; 0.01044
 721.06;17317.774;  177.369;17774.532; 0.01142
 721.63;17301.223;  190.930;17799.979; 0.01248
 722.20;17256.672;  195.825;17861.426; 0.01513
 722.77;17349.121;  203.386;17825.540; 0.01190
 723.34;17297.570;  196.947;17821.321; 0.01310
 723.91;17241.019;  205.509;17813.102; 0.01434
 724.48;17160.801;  222.070;17777.883; 0.01554
 725.05;17117.250;  212.964;17617.997; 0.01268
 725.62;17031.698;  195.192;17490.778; 0.01168
 726.20;17006.814;  186.754;17461.892; 0.01159
 726.77;16985.929;  192.982;17446.339; 0.01175
 727.34;17015.045;  199.210;17412.787; 0.01015
 727.91;17051.160;  209.104;17361.567; 0.00793
 728.48;17070.943;  214.999;17354.015; 0.00723
 729.05;17011.391;  215.560;17353.795; 0.00876
 729.62;17043.174;  192.788;17320.910; 0.00710
 730.19;17047.289;  185.683;17297.024; 0.00639
 730.76;17050.071;  188.578;17324.138; 0.00700
 731.33;16922.520;  211.472;17306.252; 0.00986
 731.90;16809.969;  215.034;17274.033; 0.01198
 732.47;16807.751;  206.261;17242.147; 0.01122
 733.04;16811.200;  191.156;17245.594; 0.01121
 733.61;16744.649;  168.051;17256.042; 0.01320
 734.18;16698.431;  173.945;17191.156; 0.01276
 734.75;16577.546;  184.507;17077.270; 0.01304
 735.32;16573.995;  211.401;16955.384; 0.01001
 735.89;16519.111;  203.963;16851.831; 0.00877
 736.46;16513.893;  212.191;16734.945; 0.00585
 737.03;16479.342;  203.085;16674.393; 0.00517
 737.60;16346.791;  203.647;16580.840; 0.00625
 738.17;16203.906;  173.208;16558.621; 0.00950
 738.74;16180.022;  184.103;16523.735; 0.00923
 739.31;16142.137;  185.331;16430.849; 0.00779
 739.88;16085.586;  195.225;16300.630; 0.00584
 740.45;15944.035;  176.120;16234.411; 0.00793
 741.02;15852.150;  174.348;16293.858; 0.01207
 741.59;15854.932;  171.909;16337.305; 0.01316
 742.15;15990.048;  177.804;16325.753; 0.00912
 742.72;16019.163;  185.365;16376.867; 0.00970
 743.29;16086.279;  187.593;16351.648; 0.00719
 743.86;16006.394;  195.154;16298.095; 0.00794
 744.43;16061.843;  197.049;16220.543; 0.00432
 745.00;16031.625;  201.277;16240.323; 0.00569
 745.57;15989.408;  209.172;16261.771; 0.00743
 746.14;15900.856;  201.733;16198.552; 0.00816
 746.71;15878.972;  208.294;16179.666; 0.00825
 747.28;15827.421;  196.522;16170.446; 0.00943
 747.85;15799.870;  172.417;16124.227; 0.00892
 748.42;15826.652;  173.645;16103.675; 0.00762
 748.98;15855.101;  177.206;16075.455; 0.00606
 749.55;15858.883;  197.767;16011.569; 0.00421
 750.12;15814.665;  197.662;16015.683; 0.00555
 750.69;15733.114;  204.890;15955.131; 0.00617
 751.26;15687.896;  216.118;15910.245; 0.00620
 751.83;15564.011;  206.013;15821.026; 0.00721
 752.40;15601.127;  204.907;15769.807; 0.00473
 752.97;15540.242;  192.802;15780.587; 0.00675
 753.53;15631.691;  195.697;15773.035; 0.00396
 754.10;15552.473;  187.925;15706.815; 0.00434
 754.67;15515.256;  185.486;15666.263; 0.00426
 755.24;15351.704;  192.714;15616.044; 0.00751
 755.81;15372.820;  200.608;15583.491; 0.00599
 756.38;15352.602;  223.503;15510.272; 0.00450
 756.94;15387.718;  215.064;15482.386; 0.00270
 757.51;15247.166;  204.292;15502.833; 0.00732
 758.08;15196.282;  196.520;15545.281; 0.00999
 758.65;15049.731;  213.748;15443.728; 0.01138
 759.22;14978.180;  220.643;15351.176; 0.01084
 759.79;14830.962;  205.538;15180.623; 0.01026
 760.35;14742.744;  191.432;15130.404; 0.01142
 760.92;14640.859;  201.994;14987.518; 0.01030
 761.49;14572.308;  208.555;14849.965; 0.00831
 762.06;14453.757;  211.783;14641.079; 0.00567
 762.63;14362.206;  201.011;14500.527; 0.00422
 763.19;14243.655;  203.239;14469.641; 0.00693
 763.76;14154.104;  215.133;14423.422; 0.00831
 764.33;13999.219;  219.695;14294.202; 0.00920
 764.90;13901.335;  218.589;14107.650; 0.00650
 765.46;13783.117;  197.817;13914.097; 0.00417
 766.03;13659.899;  196.045;13749.878; 0.00289
 766.60;13543.014;  197.940;13624.992; 0.00266
 767.17;13385.463;  205.501;13465.773; 0.00264
 767.73;13223.912;  207.063;13413.220; 0.00627
 768.30;13009.694;  206.624;13205.001; 0.00658
 768.87;12798.143;  215.185;13045.782; 0.00846
 769.44;12709.592;  213.413;12836.229; 0.00438
 770.00;12544.041;  215.975;12686.677; 0.00500
 770.57;12443.490;  216.536;12525.791; 0.00291
 771.14;12173.272;  213.430;12350.238; 0.00638
 771.71;11940.387;  198.325;12122.686; 0.00669
 772.27;11686.836;  206.220;11935.800; 0.00932
 772.84;11510.618;  209.448;11715.914; 0.00782
 773.41;11402.400;  213.676;11595.695; 0.00744
 773.97;11279.849;  205.904;11440.809; 0.00627
 774.54;11189.631;  213.798;11314.923; 0.00493
 775.11;11016.080;  232.360;11227.370; 0.00843
 775.67;10836.862;  228.588;11074.818; 0.00963
 776.24;10645.311;  222.482;10902.265; 0.01058
 776.81;10548.093;  220.377;10665.712; 0.00492
 777.38;10439.542;  208.272;10484.160; 0.00189
 777.94;10312.991;  214.166;10350.941; 0.00163
 778.51;10184.107;  199.728;10214.721; 0.00133
 779.08;10033.889;  210.622;10137.835; 0.00457
 779.64; 9898.004;  201.517;10058.283; 0.00712
 780.21; 9815.786;  202.745; 9970.064; 0.00691
 780.78; 9779.235;  211.639; 9870.178; 0.00411
 781.34; 9740.684;  212.534; 9787.625; 0.00213
 781.91; 9657.800;  225.762; 9703.406; 0.00209
 782.47; 9612.582;  227.990; 9633.520; 0.00097
 783.04; 9553.031;  238.551; 9482.634;-0.00329
 783.61; 9476.146;  245.779; 9385.415;-0.00429
 784.17; 9361.595;  246.674; 9320.196;-0.00198
 784.74; 9268.044;  236.569; 9240.310;-0.00134
 785.31; 9162.826;  244.797; 9256.090; 0.00452
 785.87; 9072.275;  248.691; 9137.538; 0.00320
 786.44; 9016.057;  252.252; 9126.319; 0.00543
 787.00; 8965.506;  239.480; 9065.766; 0.00496
 787.57; 8895.621;  222.375; 9005.880; 0.00549
 788.14; 8828.403;  242.936; 8941.661; 0.00569
 788.70; 8801.186;  252.831; 8828.442; 0.00138
 789.27; 8818.968;  261.392; 8880.222; 0.00310
 789.83; 8823.083;  247.620; 8836.003; 0.00065
 790.40; 8832.199;  230.182; 8838.117; 0.00030
 790.96; 8847.981;  235.076; 8799.898;-0.00243
 791.53; 8797.096;  229.304; 8766.679;-0.00154
 792.10; 8690.545;  224.866; 8777.126; 0.00442
 792.66; 8597.994;  219.094; 8720.574; 0.00631
 793.23; 8590.443;  214.988; 8733.688; 0.00736
 793.79; 8637.225;  216.216; 8675.468; 0.00197
 794.36; 8610.674;  210.777; 8660.249; 0.00256
 794.92; 8531.456;  219.339; 8606.363; 0.00390
 795.49; 8449.905;  232.233; 8532.811; 0.00436
 796.05; 8455.354;  243.461; 8505.258; 0.00263
 796.62; 8468.803;  248.023; 8527.372; 0.00308
 797.19; 8415.585;  237.917; 8507.820; 0.00487
 797.75; 8379.367;  226.145; 8453.600; 0.00394
 798.32; 8408.816;  218.373; 8393.714;-0.00080
 798.88; 8437.598;  222.601; 8383.829;-0.00285
 799.45; 8469.713;  224.829; 8436.276;-0.00176
 800.01; 8542.496;  220.391; 8517.723;-0.00129
 800.58; 8737.611;  215.952; 8677.504;-0.00307
 801.14; 8993.060;  222.513; 8916.952;-0.00379
 801.71; 9208.175;  218.074; 9117.399;-0.00441
 802.27; 9472.958;  206.969; 9310.180;-0.00770
 802.84; 9648.740;  188.864; 9480.294;-0.00780
 803.40; 9931.522;  179.758; 9723.075;-0.00938
 803.96;10228.637;  198.986;10006.189;-0.00974
 804.53;10569.753;  210.548;10273.303;-0.01261
 805.09;10812.202;  208.442;10576.417;-0.00977
 805.66;11076.317;  200.670;10926.198;-0.00604
 806.22;11387.099;  172.898;11264.978;-0.00476
 806.79;11746.548;  185.793;11622.426;-0.00469
 807.35;12107.664;  182.354;11886.873;-0.00812
 807.92;12442.113;  214.582;12161.654;-0.01008
 808.48;12760.895;  221.810;12436.768;-0.01137
 809.05;13016.344;  217.705;12708.882;-0.01056
 809.61;13284.792;  213.933;13054.330;-0.00773
 810.17;13570.575;  218.827;13355.110;-0.00707
 810.74;13861.357;  231.055;13671.891;-0.00608
 811.30;14178.139;  226.617;13899.672;-0.00876
 811.87;14532.588;  214.511;14212.453;-0.00982
 812.43;14897.370;  214.406;14571.233;-0.00976
 812.99;15223.152;  216.967;14881.014;-0.01002
 813.56;15549.268;  221.862;15191.462;-0.01026
 814.12;15887.716;  221.090;15523.909;-0.01020
 814.69;16278.165;  216.318;15866.356;-0.01128
 815.25;16581.281;  210.213;16143.804;-0.01176
 815.81;16838.396;  200.774;16302.251;-0.01423
 816.38;17166.845;  196.335;16642.699;-0.01363
 816.94;17480.961;  193.897;16882.479;-0.01530
 817.51;17841.409;  192.791;17283.594;-0.01395
 818.07;18024.525;  201.019;17504.374;-0.01286
 818.63;18314.974;  202.247;17804.155;-0.01242
 819.20;18480.756;  201.808;18033.936;-0.01075
 819.76;18721.205;  209.370;18216.050;-0.01202
 820.32;18895.654;  216.598;18394.831;-0.01180
 820.89;19132.436;  218.159;18583.278;-0.01280
 821.45;19310.218;  193.387;18775.726;-0.01232
 822.01;19423.667;  176.615;18965.173;-0.01047
 822.58;19472.116;  180.843;19065.620;-0.00925
 823.14;19502.231;  194.404;19233.068;-0.00610
 823.70;19514.013;  202.299;19352.182;-0.00365
 824.27;19578.129;  193.194;19462.963;-0.00259
 824.83;19654.911;  215.421;19467.743;-0.00420
 825.39;19582.693;  215.649;19374.524;-0.00469
 825.95;19519.142;  221.211;19316.972;-0.00457
 826.52;19366.257;  191.105;19274.752;-0.00208
 827.08;19306.373;  189.000;19152.200;-0.00352
 827.64;19068.822;  175.895;18949.314;-0.00276
 828.21;18886.937;  175.123;18660.095;-0.00530
 828.77;18589.719;  181.351;18397.542;-0.00456
 829.33;18247.502;  183.579;18029.323;-0.00528
 829.89;17875.617;  181.807;17638.104;-0.00587
 830.46;17447.066;  185.701;17297.218;-0.00379
 831.02;17152.181;  190.596;16895.332;-0.00663
 831.58;16755.630;  201.157;16540.779;-0.00567
 832.15;16369.746;  185.052;16128.893;-0.00651
 832.71;15849.195;  188.280;15811.341;-0.00105
 833.27;15412.977;  178.841;15353.455;-0.00170
 833.83;14957.759;  169.736;14940.569;-0.00051
 834.39;14535.541;  164.297;14394.016;-0.00430
 834.96;14017.990;  162.192;13925.464;-0.00291
 835.52;13641.772;  187.086;13474.578;-0.00543
 836.08;13210.221;  188.981;13047.025;-0.00548
 836.64;12791.336;  194.876;12619.473;-0.00597
 837.21;12316.785;  198.770;12148.920;-0.00606
 837.77;11969.567;  198.332;11759.367;-0.00783
 838.33;11560.016;  206.893;11447.148;-0.00434
 838.89;11105.132;  203.121;11001.596;-0.00414
 839.45;10629.581;  205.349;10589.710;-0.00166
 840.02;10183.029;  209.910;10134.490;-0.00212
 840.58; 9791.478;  201.805; 9836.938; 0.00205
 841.14; 9390.260;  224.699; 9457.052; 0.00315
 841.70; 9003.709;  220.594; 9049.833; 0.00227
 842.26; 8625.825;  218.155; 8613.280;-0.00065
 842.82; 8250.607;  209.050; 8233.061;-0.00095
 843.39; 7842.722;  200.278; 7802.175;-0.00231
 843.95; 7498.171;  213.839; 7446.956;-0.00306
 844.51; 7114.287;  213.734; 7076.737;-0.00237
 845.07; 6822.069;  223.295; 6751.184;-0.00469
 845.63; 6523.184;  228.523; 6447.965;-0.00522
 846.19; 6313.967;  213.418; 6205.745;-0.00777
 846.75; 6109.082;  212.646; 6042.860;-0.00491
 847.32; 5917.864;  191.874; 5828.307;-0.00685
 847.88; 5716.313;  198.435; 5647.088;-0.00548
 848.44; 5499.762;  182.996; 5418.202;-0.00671
 849.00; 5337.877;  188.224; 5206.649;-0.01121
 849.56; 5221.660;  183.119; 5035.763;-0.01633
 850.12; 5102.108;  176.680; 4913.211;-0.01698
 850.68; 5021.557;  181.908; 4877.325;-0.01314
 851.24; 4932.006;  184.136; 4806.439;-0.01164
 851.80; 4887.122;  199.364; 4790.220;-0.00907
 852.37; 4856.904;  196.592; 4731.334;-0.01186
 852.93; 4831.686;  204.820; 4729.448;-0.00970
 853.49; 4846.801;  212.715; 4650.895;-0.01876
 854.05; 4797.584;  223.943; 4597.676;-0.01941
 854.61; 4712.032;  224.171; 4520.790;-0.01891
 855.17; 4651.481;  234.066; 4501.904;-0.01496
 855.73; 4595.597;  222.627; 4484.352;-0.01119
 856.29; 4611.712;  213.855; 4475.132;-0.01370
 856.85; 4615.161;  192.749; 4517.913;-0.00966
 857.41; 4699.610;  203.644; 4600.027;-0.00973
 857.97; 4794.725;  205.205; 4760.141;-0.00328
 858.53; 4942.841;  207.433; 4902.255;-0.00374
 859.09; 5132.290;  192.328; 5028.370;-0.00923
 859.65; 5368.072;  184.889; 5166.484;-0.01723
 860.21; 5635.854;  182.451; 5403.598;-0.01890
 860.77; 5922.970;  179.679; 5685.045;-0.01837
 861.33; 6296.418;  189.573; 6014.826;-0.02050
 861.89; 6635.867;  205.135; 6331.273;-0.02107
 862.45; 6985.649;  215.363; 6656.387;-0.02165
 863.01; 7276.432;  205.924; 6960.168;-0.01987
 863.57; 7634.547;  191.152; 7240.949;-0.02359
 864.13; 7948.663;  180.713; 7598.730;-0.02002
 864.69; 8249.111;  188.608; 7928.510;-0.01763
 865.25; 8609.560;  208.502; 8274.958;-0.01765
 865.81; 8971.676;  215.730; 8598.739;-0.01890
 866.37; 9341.458;  213.625; 8883.853;-0.02234
 866.93; 9647.240;  200.853; 9198.967;-0.02111
 867.49; 9973.689;  216.081; 9536.081;-0.01993
 868.05;10348.471;  210.642; 9849.195;-0.02193
 868.61;10630.920;  206.870;10116.309;-0.02199
 869.17;10904.369;  185.765;10306.090;-0.02494
 869.73;11182.151;  202.660;10652.537;-0.02147
 870.29;11509.266;  209.554;10985.985;-0.02059
 870.85;11880.715;  212.115;11316.099;-0.02154
 871.41;12215.164;  192.010;11700.213;-0.01901
 871.97;12621.946;  179.571;12032.994;-0.02106
 872.53;12975.062;  184.799;12414.108;-0.01948
 873.09;13362.844;  192.361;12748.222;-0.02076
 873.65;13759.959;  202.922;13125.336;-0.02082
 874.20;14127.742;  204.150;13530.783;-0.01903
 874.76;14568.408;  206.483;13844.450;-0.02246
 875.32;15007.075;  199.150;14344.450;-0.01988
 875.88;15400.408;  204.817;14722.117;-0.01983
 876.44;15738.075;  218.150;15059.450;-0.01942
 877.00;15990.408;  218.150;15358.117;-0.01777
 877.56;16392.075;  215.483;15696.450;-0.01909
 878.12;16733.408;  204.483;16104.450;-0.01685
 878.68;17088.742;  211.817;16344.450;-0.01959
 879.23;17294.742;  207.150;16637.783;-0.01703
 879.79;17527.742;  220.483;16875.783;-0.01668
 880.35;17746.742;  205.150;17127.117;-0.01562
 880.91;18062.742;  192.150;17367.783;-0.01723
 881.47;18295.742;  175.817;17611.783;-0.01671
 882.03;18574.742;  191.483;17929.783;-0.01551
 882.59;18773.408;  204.150;18199.450;-0.01364
 883.14;18986.075;  217.150;18423.117;-0.01323
 883.70;19123.408;  220.150;18492.117;-0.01475
 884.26;19320.408;  217.483;18606.117;-0.01655
 884.82;19402.075;  200.150;18627.783;-0.01788
 885.38;19396.075;  184.483;18693.783;-0.01617
 885.94;19456.408;  186.817;18692.783;-0.01756
 886.49;19430.408;  200.150;18759.783;-0.01542
 887.05;19442.075;  192.817;18819.450;-0.01428
 887.61;19241.742;  182.817;18766.450;-0.01097
 888.17;19172.075;  175.817;18655.450;-0.01197
 888.73;19037.742;  189.483;18492.450;-0.01275
 889.28;18842.075;  190.150;18251.117;-0.01398
 889.84;18642.408;  191.817;18020.450;-0.01489
 890.40;18557.408;  194.817;17792.450;-0.01848
 890.96;18420.408;  199.483;17628.450;-0.01930
 891.51;18286.075;  189.483;17470.117;-0.02004
 892.07;17952.408;  183.817;17244.117;-0.01767
 892.63;17808.742;  190.483;17036.783;-0.01946
 893.19;17593.408;  200.817;16880.117;-0.01819
 893.74;17483.408;  215.150;16772.783;-0.01825
 894.30;17298.742;  206.150;16671.450;-0.01624
 894.86;17114.742;  185.150;16510.450;-0.01579
 895.42;17036.408;  176.483;16397.450;-0.01678
 895.97;16908.075;  175.150;16362.450;-0.01440
 896.53;16863.075;  203.817;16299.450;-0.01495
 897.09;16748.075;  212.817;16258.117;-0.01306
 897.65;16728.742;  225.483;16079.783;-0.01742
 898.20;16679.408;  228.483;15994.117;-0.01848
 898.76;16641.075;  215.150;15888.117;-0.02038
 899.32;16503.408;  215.483;15824.450;-0.01849
 899.87;16384.742;  206.483;15765.117;-0.01696
 900.43;16187.075;  206.150;15631.783;-0.01536
 900.99;16107.075;  194.483;15508.450;-0.01665
 901.54;15969.742;  181.150;15319.450;-0.01827
 902.10;15795.075;  193.150;15133.117;-0.01883
 902.66;15546.408;  208.483;14918.117;-0.01816
 903.21;15347.075;  221.817;14754.117;-0.01737
 903.77;15205.075;  229.483;14588.450;-0.01826
 904.33;15071.742;  209.483;14443.783;-0.01875
 904.88;14887.075;  198.150;14329.783;-0.01680
 905.44;14825.408;  177.150;14293.450;-0.01607
 906.00;14826.408;  191.150;14324.117;-0.01517
 906.55;14881.408;  207.483;14294.117;-0.01774
 907.11;14803.408;  214.150;14239.117;-0.01713
 907.67;14614.408;  205.817;14016.117;-0.01842
 908.22;14447.408;  196.150;13855.783;-0.01841
 908.78;14313.075;  187.817;13715.783;-0.01876
 909.33;14201.075;  195.483;13616.783;-0.01851
 909.89;14125.408;  192.150;13488.783;-0.02031
 910.45;14002.408;  201.150;13406.783;-0.01916
 911.00;13891.742;  191.483;13362.117;-0.01712
 911.56;13733.408;  203.817;13272.117;-0.01507
 912.12;13592.075;  208.483;13101.117;-0.01623
 912.67;13510.742;  221.483;12951.117;-0.01868
 913.23;13415.075;  194.150;12807.450;-0.02043
 913.78;13275.075;  178.483;12651.783;-0.02118
 914.34;13134.075;  201.483;12642.117;-0.01684
 914.89;12986.742;  216.483;12543.117;-0.01536
 915.45;12890.075;  227.150;12558.117;-0.01154
 916.01;12780.075;  195.483;12386.117;-0.01381
 916.56;12703.408;  201.483;12282.450;-0.01488
 917.12;12582.075;  196.817;12063.117;-0.01859
 917.67;12540.408;  195.483;11981.117;-0.02014
 918.23;12410.075;  182.817;11944.450;-0.01686
 918.78;12330.408;  186.483;11927.117;-0.01467
 919.34;12174.742;  188.817;11843.783;-0.01216
 919.89;12037.408;  199.150;11694.117;-0.01278
 920.45;11934.742;  185.817;11531.783;-0.01516
 921.00;11801.075;  168.817;11330.783;-0.01792
 921.56;11704.742;  176.150;11296.783;-0.01565
 922.11;11602.075;  175.150;11154.450;-0.01735
 922.67;11463.408;  202.483;11048.450;-0.01631
 923.22;11324.742;  191.150;10815.450;-0.02033
 923.78;11108.075;  202.817;10632.117;-0.01938
 924.33;10931.742;  195.817;10497.117;-0.01795
 924.89;10739.742;  196.483;10361.117;-0.01588
 925.44;10624.408;  204.817;10248.117;-0.01597
 926.00;10496.408;  201.150;10018.783;-0.02063
 926.55;10366.742;  205.150; 9867.117;-0.02190
 927.11;10245.075;  188.150; 9720.450;-0.02327
 927.66;10109.742;  177.817; 9717.117;-0.01752
 928.22;10065.408;  174.483; 9670.783;-0.01768
 928.77; 9950.742;  190.150; 9636.117;-0.01423
 929.33; 9952.742;  204.150; 9587.783;-0.01657
 929.88; 9881.075;  205.150; 9516.450;-0.01668
 930.43; 9912.742;  182.483; 9493.450;-0.01913
 930.99; 9830.408;  174.817; 9470.117;-0.01652
 931.54; 9823.742;  167.150; 9456.783;-0.01683
 932.10; 9796.742;  190.150; 9473.117;-0.01488
 932.65; 9939.075;  197.150; 9480.117;-0.02096
 933.21; 9939.075;  198.483; 9496.450;-0.02020
 933.76; 9932.742;  187.483; 9472.117;-0.02103
 934.31; 9831.408;  183.150; 9454.117;-0.01732
 934.87; 9823.742;  190.150; 9433.783;-0.01795
 935.42; 9866.075;  199.483; 9431.450;-0.01998
 935.98; 9818.742;  195.483; 9388.450;-0.01987
 936.53; 9811.075;  193.817; 9335.450;-0.02203
 937.08; 9765.742;  191.150; 9347.783;-0.01938
 937.64; 9756.408;  197.817; 9356.783;-0.01855
 938.19; 9714.742;  196.483; 9425.117;-0.01342
 938.74; 9654.408;  199.817; 9340.117;-0.01468
 939.30; 9686.075;  187.150; 9339.783;-0.01613
 939.85; 9572.075;  186.483; 9209.783;-0.01710
 940.40; 9579.408;  173.817; 9251.783;-0.01540
 940.96; 9551.075;  187.150; 9238.450;-0.01475
 941.51; 9579.075;  189.483; 9244.783;-0.01574
 942.06; 9516.408;  197.150; 9160.450;-0.01691
 942.62; 9416.075;  184.817; 9036.783;-0.01822
 943.17; 9379.742;  195.150; 8966.450;-0.02000
 943.72; 9271.408;  180.483; 8903.117;-0.01796
 944.28; 9264.075;  199.483; 8795.117;-0.02307
 944.83; 9200.075;  184.150; 8766.783;-0.02139
 945.38; 9188.075;  194.483; 8735.117;-0.02244
 945.94; 9097.408;  186.483; 8804.450;-0.01452
 946.49; 9062.408;  205.150; 8772.783;-0.01444
 947.04; 9022.075;  208.817; 8738.117;-0.01422
 947.60; 8963.408;  215.150; 8638.117;-0.01646
 948.15; 8849.408;  203.483; 8519.117;-0.01692
 948.70; 8732.742;  212.817; 8413.783;-0.01657
 949.25; 8695.075;  206.150; 8325.117;-0.01935
 949.81; 8667.742;  208.817; 8271.117;-0.02086
 950.36; 8523.742;  198.483; 8157.117;-0.01956
 950.91; 8320.742;  207.150; 8037.783;-0.01542
 951.46; 8140.408;  203.817; 7873.117;-0.01488
 952.02; 8018.075;  207.150; 7734.117;-0.01608
 952.57; 7921.742;  207.150; 7606.450;-0.01812
 953.12; 7798.408;  218.483; 7526.117;-0.01589
 953.67; 7737.742;  218.150; 7443.783;-0.01732
 954.23; 7617.075;  215.817; 7359.450;-0.01539
 954.78; 7484.408;  208.150; 7234.450;-0.01518
 955.33; 7357.408;  218.150; 7119.783;-0.01470
 955.88; 7207.075;  217.150; 6980.117;-0.01434
 956.44; 7174.742;  230.483; 6838.450;-0.02156
 956.99; 7127.075;  228.817; 6737.117;-0.02527
 957.54; 7086.742;  223.817; 6672.783;-0.02702
 958.09; 7002.075;  222.150; 6636.783;-0.02405
 958.64; 6951.742;  206.817; 6607.450;-0.02275
 959.20; 6908.742;  203.483; 6532.450;-0.02508
 959.75; 6831.408;  199.817; 6496.450;-0.02251
 960.30; 6757.075;  218.150; 6441.783;-0.02146
 960.85; 6762.075;  225.150; 6424.450;-0.02303
 961.40; 6801.075;  228.817; 6381.117;-0.02868
 961.95; 6793.075;  231.817; 6360.783;-0.02960
 962.51; 6771.075;  239.483; 6360.117;-0.02822
 963.06; 6677.075;  242.817; 6380.117;-0.02052
 963.61; 6669.408;  234.150; 6314.783;-0.02462
 964.16; 6585.075;  235.150; 6258.450;-0.02293
 964.71; 6625.742;  222.483; 6212.117;-0.02900
 965.26; 6632.075;  213.150; 6253.117;-0.02643
 965.81; 6677.075;  210.817; 6289.117;-0.02687
 966.36; 6678.742;  208.483; 6323.783;-0.02450
 966.92; 6674.742;  216.150; 6305.117;-0.02559
 967.47; 6659.075;  218.483; 6338.117;-0.02220
 968.02; 6698.742;  232.483; 6354.117;-0.02379
 968.57; 6681.075;  234.817; 6375.450;-0.02109
 969.12; 6693.075;  219.817; 6368.783;-0.02232
 969.67; 6710.408;  204.483; 6420.783;-0.01978
 970.22; 6816.075;  194.150; 6469.783;-0.02333
 970.77; 6919.408;  199.817; 6539.117;-0.02530
 971.32; 6944.075;  197.483; 6593.117;-0.02320
 971.87; 6991.408;  198.817; 6693.117;-0.01950
 972.42; 7120.075;  215.150; 6793.117;-0.02107
 972.98; 7276.742;  220.817; 6908.783;-0.02326
 973.53; 7359.742;  231.483; 6996.117;-0.02274
 974.08; 7388.075;  215.483; 7040.450;-0.02158
 974.63; 7485.742;  223.483; 7078.450;-0.02507
 975.18; 7504.742;  218.483; 7103.117;-0.02462
 975.73; 7623.742;  224.817; 7157.450;-0.02827
 976.28; 7620.075;  221.483; 7219.117;-0.02420
 976.83; 7709.408;  221.483; 7315.450;-0.02347
 977.38; 7698.742;  219.483; 7373.783;-0.01929
 977.93; 7750.075;  222.150; 7387.450;-0.02144
 978.48; 7806.408;  228.483; 7365.783;-0.02602
 979.03; 7823.408;  234.817; 7358.117;-0.02748
 979.58; 7796.742;  221.483; 7329.117;-0.02767
 980.13; 7766.075;  207.150; 7367.783;-0.02351
 980.68; 7688.408;  186.483; 7310.450;-0.02245
 981.23; 7609.408;  185.817; 7278.117;-0.01983
 981.78; 7543.075;  207.150; 7207.450;-0.02034
 982.33; 7527.075;  219.150; 7257.117;-0.01635
 982.88; 7521.075;  232.483; 7211.783;-0.01883
 983.43; 7488.408;  218.150; 7145.783;-0.02096
 983.98; 7408.075;  215.150; 6984.117;-0.02638
 984.53; 7334.742;  203.817; 6873.450;-0.02904
 985.08; 7269.408;  209.817; 6835.783;-0.02753
 985.63; 7207.742;  211.150; 6787.117;-0.02693
 986.18; 7161.408;  218.817; 6756.783;-0.02608
 986.73; 7045.742;  218.483; 6610.450;-0.02861
 987.27; 7010.408;  227.483; 6521.117;-0.03252
 987.82; 6877.742;  238.483; 6431.783;-0.03020
 988.37; 6779.742;  243.150; 6400.783;-0.02594
 988.92; 6641.408;  234.150; 6351.117;-0.02014
 989.47; 6554.408;  214.483; 6285.117;-0.01885
 990.02; 6480.075;  208.483; 6199.117;-0.01991
 990.57; 6459.075;  208.150; 6083.117;-0.02694
 991.12; 6420.742;  215.150; 6044.450;-0.02717
 991.67; 6392.075;  213.817; 5969.117;-0.03080
 992.22; 6286.408;  200.483; 5915.450;-0.02731
 992.77; 6169.742;  200.150; 5802.450;-0.02758
 993.31; 6040.742;  204.817; 5735.783;-0.02331
 993.86; 5940.408;  230.483; 5683.783;-0.01997
 994.41; 5852.742;  235.150; 5580.117;-0.02161
 994.96; 5734.408;  226.483; 5473.117;-0.02111
 995.51; 5590.075;  218.817; 5377.783;-0.01751
 996.06; 5478.408;  208.483; 5293.783;-0.01549
 996.61; 5389.742;  222.483; 5201.783;-0.01609
 997.15; 5327.742;  236.150; 5083.450;-0.02135
 997.70; 5248.408;  241.150; 4965.117;-0.02529
 998.25; 5134.075;  247.483; 4873.450;-0.02380
 998.80; 5018.408;  248.483; 4740.117;-0.02611
 999.35; 4855.408;  249.483; 4623.450;-0.02244
 999.90; 4717.075;  236.150; 4455.117;-0.02616
1000.44; 4550.742;  224.483; 4340.450;-0.02164
1000.99; 4416.408;  232.483; 4190.783;-0.02408
1001.54; 4256.075;  237.150; 4067.450;-0.02088
1002.09; 4117.742;  231.817; 3939.117;-0.02044
1002.64; 4033.075;  238.483; 3855.450;-0.02082
1003.18; 3987.742;  240.483; 3766.783;-0.02639
1003.73; 3888.742;  238.483; 3661.450;-0.02792
1004.28; 3767.408;  226.817; 3584.450;-0.02304
1004.83; 3610.408;  209.483; 3488.117;-0.01590
1005.38; 3524.742;  210.150; 3420.783;-0.01384
1005.92; 3440.075;  219.150; 3321.783;-0.01625
1006.47; 3401.742;  236.817; 3231.783;-0.02397
1007.02; 3381.075;  235.483; 3140.117;-0.03461
1007.57; 3284.408;  222.817; 3087.450;-0.02888
1008.11; 3214.408;  211.817; 3028.450;-0.02777
1008.66; 3107.408;  205.150; 2973.450;-0.02052
1009.21; 3058.408;  192.483; 2907.783;-0.02345
1009.75; 2953.408;  177.817; 2862.117;-0.01452
1010.30; 2865.075;  170.150; 2793.117;-0.01175
1010.85; 2779.408;  176.817; 2712.783;-0.01126
1011.40; 2743.075;  204.150; 2628.450;-0.02006
1011.94; 2685.075;  221.817; 2545.783;-0.02528
1012.49; 2636.408;  216.483; 2464.450;-0.03201
1013.04; 2543.075;  194.150; 2362.117;-0.03482
1013.58; 2437.742;  184.150; 2325.117;-0.02227
1014.13; 2359.742;  188.483; 2268.117;-0.01872
1014.68; 2316.075;  196.483; 2233.450;-0.01727
1015.23; 2260.408;  203.150; 2181.450;-0.01700
1015.77; 2205.742;  199.817; 2113.117;-0.02053
1016.32; 2154.408;  204.817; 2072.450;-0.01865
1016.87; 2114.075;  209.483; 2012.783;-0.02373
1017.41; 2096.075;  206.817; 1977.450;-0.02816
1017.96; 2031.408;  194.817; 1953.450;-0.01884
1018.50; 1989.408;  186.483; 1926.450;-0.01544
1019.05; 1922.408;  188.483; 1903.450;-0.00477
1019.60; 1871.742;  182.817; 1815.783;-0.01463
1020.14; 1856.075;  196.150; 1752.783;-0.02790
1020.69; 1806.408;  196.150; 1698.117;-0.03024
1021.24; 1756.075;  209.483; 1650.450;-0.03072
1021.78; 1689.742;  188.483; 1620.450;-0.02052
1022.33; 1642.408;  190.150; 1592.450;-0.01520
1022.87; 1599.742;  182.817; 1587.783;-0.00368
1023.42; 1558.408;  198.150; 1567.117; 0.00277
1023.97; 1532.742;  200.150; 1516.117;-0.00545
1024.51; 1513.742;  212.150; 1465.117;-0.01654
1025.06; 1482.075;  200.483; 1401.117;-0.02834
1025.60; 1429.408;  198.817; 1340.783;-0.03246
1026.15; 1393.408;  181.150; 1307.783;-0.03181
1026.70; 1341.075;  185.483; 1284.783;-0.02169
1027.24; 1339.408;  195.483; 1279.783;-0.02325
1027.79; 1312.075;  200.483; 1270.450;-0.01658
1028.33; 1322.408;  197.483; 1252.450;-0.02788
1028.88; 1275.742;  188.817; 1215.450;-0.02478
1029.42; 1248.408;  208.150; 1198.450;-0.02137
1029.97; 1184.408;  197.817; 1156.450;-0.01248
1030.51; 1160.075;  190.150; 1127.117;-0.01501
1031.06; 1123.742;  182.817; 1088.783;-0.01644
1031.61; 1117.742;  192.483; 1063.117;-0.02643
1032.15; 1094.075;  210.150; 1050.450;-0.02198
1032.70; 1098.742;  202.817; 1024.117;-0.03777
1033.24; 1083.075;  206.483; 1018.117;-0.03344
1033.79; 1079.742;  200.817; 1020.450;-0.03033
1034.33; 1043.408;  199.817; 1016.450;-0.01411
1034.88; 1020.408;  201.817; 1008.783;-0.00621
1035.42; 1000.075;  202.817;  979.450;-0.01138
1035.97;  978.408;  204.483;  950.450;-0.01598
1036.51;  968.075;  206.483;  931.450;-0.02140
1037.06;  954.408;  200.817;  944.117;-0.00597
1037.60;  988.075;  207.150;  948.783;-0.02242
1038.14; 1007.742;  204.150;  928.783;-0.04492
1038.69; 1025.075;  222.150;  927.783;-0.05610
1039.23; 1012.075;  234.483;  935.783;-0.04485
1039.78;  999.408;  235.150;  948.783;-0.02977
1040.32;  946.742;  224.483;  915.783;-0.01903
1040.87;  909.742;  208.483;  887.117;-0.01424
1041.41;  901.742;  198.150;  864.117;-0.02387
1041.96;  917.408;  200.817;  882.783;-0.02151
1042.50;  932.408;  197.817;  893.117;-0.02387
1043.04;  906.075;  213.817;  899.117;-0.00439
1043.59;  890.742;  217.150;  867.450;-0.01528
1044.13;  880.075;  212.483;  869.450;-0.00697
1044.68;  878.408;  205.817;  862.117;-0.01065
1045.22;  884.742;  199.150;  873.783;-0.00700
1045.76;  883.742;  201.817;  869.450;-0.00920
1046.31;  860.742;  193.483;  861.783; 0.00068
1046.85;  858.075;  200.483;  842.117;-0.01067
1047.40;  841.742;  202.483;  813.783;-0.01942
1047.94;  858.408;  215.150;  808.783;-0.03487
1048.48;  853.075;  211.150;  810.117;-0.03008
1049.03;  848.408;  214.483;  793.450;-0.03938
1049.57;  845.742;  229.150;  787.117;-0.04339
1050.11;  832.408;  222.817;  774.117;-0.04365
1050.66;  812.742;  218.483;  779.117;-0.02530
1051.20;  810.742;  206.483;  794.450;-0.01187
1051.74;  781.742;  200.817;  788.117; 0.00474
1052.29;  785.075;  200.150;  780.783;-0.00320
1052.83;  773.742;  199.150;  748.117;-0.01981
1053.37;  775.742;  224.817;  744.783;-0.02512
1053.92;  782.075;  234.150;  739.783;-0.03489
1054.46;  769.408;  236.483;  734.117;-0.02976
1055.00;  780.408;  231.483;  739.117;-0.03396
1055.55;  771.408;  230.817;  738.117;-0.02760
1056.09;  764.408;  223.817;  747.783;-0.01357
1056.63;  748.408;  215.817;  711.783;-0.03094
1057.17;  722.075;  216.483;  709.117;-0.01128
1057.72;  707.075;  225.150;  697.450;-0.00876
1058.26;  695.742;  223.483;  705.783; 0.00914
1058.80;  710.742;  229.817;  700.450;-0.00939
1059.35;  710.742;  230.483;  686.450;-0.02254
1059.89;  694.408;  230.150;  672.450;-0.02104
1060.43;  673.075;  227.817;  654.783;-0.01822
1060.97;  656.742;  223.817;  667.117; 0.01029
1061.52;  653.408;  231.150;  682.450; 0.02889
1062.06;  649.408;  231.483;  671.450; 0.02232
1062.60;  637.742;  236.483;  658.450; 0.02185
1063.14;  646.408;  232.483;  640.783;-0.00594
1063.69;  620.742;  216.483;  640.117; 0.02033
1064.23;  623.075;  208.817;  619.783;-0.00346
1064.77;  608.408;  200.483;  598.450;-0.01073
1065.31;  616.075;  201.817;  577.450;-0.04251
1065.85;  608.408;  206.483;  567.117;-0.04708
1066.40;  604.408;  205.150;  579.450;-0.02803
1066.94;  609.408;  217.817;  579.117;-0.03497
1067.48;  609.408;  209.150;  587.783;-0.02412
1068.02;  606.408;  233.817;  562.450;-0.05452
1068.56;  596.742;  216.817;  564.783;-0.03816
1069.10;  586.742;  212.817;  549.783;-0.04520
1069.65;  579.408;  195.817;  566.450;-0.01492
1070.19;  568.075;  208.817;  566.783;-0.00156
1070.73;  576.742;  223.817;  582.783; 0.00737
1071.27;  593.075;  215.817;  567.117;-0.03096
1071.81;  584.742;  207.150;  562.117;-0.02683
1072.35;  583.742;  201.817;  549.117;-0.04127
1072.90;  553.408;  197.150;  546.783;-0.00815
1073.44;  549.742;  202.817;  540.117;-0.01222
1073.98;  549.742;  206.150;  531.450;-0.02376
1074.52;  567.075;  224.483;  538.783;-0.03743
1075.06;  585.742;  218.483;  542.450;-0.05447
1075.60;  561.408;  207.483;  531.450;-0.03841
1076.14;  544.075;  204.817;  514.117;-0.04015
1076.68;  524.742;  207.150;  504.450;-0.02867
1077.22;  536.075;  225.817;  504.783;-0.04617
1077.76;  537.408;  214.817;  498.117;-0.05641
1078.31;  545.408;  229.817;  499.783;-0.06782
1078.85;  530.075;  226.483;  517.117;-0.01894
1079.39;  527.075;  243.817;  525.450;-0.00250
1079.93;  514.742;  237.817;  507.783;-0.01105
1080.47;  516.742;  227.483;  476.450;-0.06514
1081.01;  501.408;  216.150;  474.783;-0.04255
1081.55;  503.742;  208.483;  488.783;-0.02258
1082.09;  514.742;  205.817;  488.783;-0.03812
1082.63;  532.075;  210.150;  496.450;-0.05093
1083.17;  520.408;  221.150;  500.783;-0.02946
1083.71;  512.742;  228.817;  501.450;-0.01762
1084.25;  505.075;  224.483;  471.117;-0.05602
1084.79;  495.075;  214.483;  446.450;-0.08265
1085.33;  475.075;  202.817;  450.783;-0.04059
1085.87;  463.408;  199.483;  468.450; 0.00822
1086.41;  495.075;  214.483;  471.450;-0.03820
1086.95;  506.075;  222.150;  467.117;-0.06410
1087.49;  513.742;  225.817;  454.783;-0.09951
1088.03;  493.742;  216.817;  454.117;-0.06706
1088.57;  478.408;  219.817;  450.783;-0.04907
1089.11;  462.075;  222.150;  448.117;-0.02603
1089.65;  464.742;  233.150;  458.783;-0.01132
1090.19;  476.075;  238.483;  468.117;-0.01480
1090.73;  486.742;  240.483;  471.783;-0.02722
1091.27;  495.075;  238.817;  466.117;-0.05208
1091.81;  502.742;  238.483;  458.117;-0.08033
1092.35;  510.742;  247.483;  461.450;-0.09004
1092.89;  495.075;  232.150;  457.450;-0.06707
1093.43;  486.408;  223.817;  445.783;-0.07299
1093.97;  461.408;  210.150;  441.117;-0.03657
1094.51;  459.408;  208.483;  440.450;-0.03412
1095.04;  446.075;  218.483;  442.783;-0.00633
1095.58;  466.742;  238.817;  436.783;-0.06120
1096.12;  451.075;  242.817;  428.783;-0.04917
1096.66;  460.742;  239.817;  430.450;-0.06405
1097.20;  447.075;  235.817;  449.450; 0.00486
1097.74;  465.075;  246.817;  456.783;-0.01682
1098.28;  442.075;  235.817;  457.117; 0.03057
1098.82;  423.075;  230.483;  453.117; 0.06295
1099.36;  395.075;  228.150;  446.450; 0.11653
1099.89;  414.742;  230.150;  447.450; 0.07085

