
Integration time [ms]:   0.300
Averaging Nr. [scans]: 1
Smoothing Nr. [pixels]: 1
Data measured with spectrometer [name]: 1906252U1
Wave   ;Sample   ;Dark     ;Reference;Absorbance
[nm]   ;[counts] ;[counts] ;[counts] ;[A.U]

 161.30;  239.183;  271.207;  271.637; 0.00000
 161.90;  253.539;  265.524;  261.712; 0.00000
 162.51;  260.241;  259.038;  260.433; 0.06410
 163.11;  246.321;  265.693;  251.834; 0.00000
 163.71;  253.950;  276.696;  266.803; 0.00000
 164.31;  262.287;  294.270;  273.488; 0.00000
 164.91;  277.219;  288.393;  287.410; 0.00000
 165.52;  284.420;  277.299;  279.261;-0.55988
 166.12;  286.903;  271.979;  273.718;-0.93375
 166.72;  285.945;  272.971;  259.755; 0.00000
 167.32;  259.558;  271.656;  271.040; 0.00000
 167.93;  243.386;  261.266;  267.518; 5.00000
 168.53;  245.823;  254.112;  260.296; 5.00000
 169.13;  264.111;  264.427;  257.261; 0.00000
 169.73;  274.202;  271.677;  266.351; 0.00000
 170.33;  281.646;  291.614;  320.561; 5.00000
 170.94;  296.972;  317.756;  347.746; 5.00000
 171.54;  326.341;  335.278;  387.239; 5.00000
 172.14;  346.629;  338.926;  375.538; 0.67695
 172.74;  353.953;  324.358;  373.181; 0.21740
 173.34;  337.999;  319.589;  355.569; 0.29100
 173.95;  334.691;  309.596;  343.923; 0.13604
 174.55;  331.663;  318.289;  355.228; 0.44122
 175.15;  341.255;  320.689;  367.155; 0.35398
 175.75;  334.306;  322.370;  380.195; 0.68524
 176.35;  346.458;  332.415;  382.036; 0.54819
 176.95;  348.303;  327.740;  392.907; 0.50094
 177.56;  353.414;  327.608;  398.355; 0.43799
 178.16;  350.038;  316.738;  399.298; 0.39433
 178.76;  345.245;  316.306;  398.487; 0.45329
 179.36;  337.785;  310.874;  401.343; 0.52657
 179.96;  330.932;  304.800;  395.813; 0.54192
 180.56;  338.414;  308.938;  392.969; 0.45496
 181.17;  346.871;  318.009;  403.448; 0.47132
 181.77;  353.929;  318.897;  417.181; 0.44802
 182.37;  352.530;  306.653;  404.111; 0.32723
 182.97;  385.208;  319.309;  413.789; 0.15646
 183.57;  408.370;  323.525;  427.944; 0.09015
 184.17;  442.538;  336.736;  473.104; 0.11022
 184.78;  436.361;  316.624;  484.587; 0.14699
 185.38;  440.600;  315.012;  504.833; 0.17940
 185.98;  441.721;  315.783;  504.638; 0.17597
 186.58;  451.858;  316.598;  510.449; 0.15630
 187.18;  447.414;  313.002;  491.678; 0.12363
 187.78;  477.135;  324.256;  526.070; 0.12060
 188.38;  486.226;  331.840;  541.159; 0.13220
 188.98;  496.266;  337.804;  574.199; 0.17371
 189.59;  480.282;  332.575;  567.529; 0.20158
 190.19;  483.488;  326.870;  580.708; 0.20971
 190.79;  483.042;  326.914;  573.939; 0.19926
 191.39;  480.706;  317.159;  564.285; 0.17928
 191.99;  475.466;  322.498;  545.363; 0.16344
 192.59;  488.708;  317.307;  539.929; 0.11356
 193.19;  467.472;  313.765;  525.712; 0.13953
 193.79;  465.034;  325.164;  530.280; 0.16627
 194.39;  458.770;  328.250;  517.658; 0.16172
 195.00;  461.607;  327.216;  511.139; 0.13627
 195.60;  449.855;  305.566;  480.732; 0.08422
 196.20;  422.249;  304.088;  469.473; 0.14602
 196.80;  403.106;  305.278;  453.989; 0.18188
 197.40;  384.959;  313.686;  455.186; 0.29783
 198.00;  372.885;  320.693;  452.457; 0.40219
 198.60;  377.050;  317.270;  442.943; 0.32268
 199.20;  369.967;  312.435;  427.513; 0.30109
 199.80;  375.225;  303.957;  416.753; 0.19940
 200.40;  358.336;  299.492;  396.868; 0.21875
 201.00;  335.554;  293.841;  371.434; 0.26956
 201.60;  313.517;  292.845;  340.403; 0.36184
 202.21;  312.685;  298.995;  352.240; 0.58987
 202.81;  325.009;  303.760;  367.883; 0.47967
 203.41;  331.729;  301.801;  377.921; 0.40542
 204.01;  321.419;  296.447;  373.611; 0.48997
 204.61;  328.615;  287.965;  374.799; 0.32963
 205.21;  324.161;  280.528;  391.328; 0.40473
 205.81;  329.742;  276.000;  394.567; 0.34365
 206.41;  314.500;  281.190;  389.667; 0.51276
 207.01;  311.666;  291.585;  373.516; 0.61067
 207.61;  299.695;  290.832;  349.221; 0.81877
 208.21;  293.569;  294.007;  340.088; 5.00000
 208.81;  292.529;  285.376;  350.048; 0.95622
 209.41;  285.078;  292.971;  355.294; 5.00000
 210.01;  293.931;  286.985;  361.835; 1.03244
 210.61;  298.760;  290.534;  351.990; 0.87339
 211.21;  315.340;  293.399;  356.219; 0.45684
 211.81;  326.071;  300.157;  352.258; 0.30332
 212.41;  319.324;  301.896;  344.513; 0.38833
 213.01;  303.747;  296.332;  351.625; 0.87253
 213.61;  296.790;  285.263;  357.339; 0.79605
 214.21;  310.211;  282.939;  368.411; 0.49611
 214.81;  321.535;  278.704;  361.387; 0.28566
 215.41;  321.797;  282.466;  362.645; 0.30933
 216.01;  320.672;  278.247;  362.189; 0.29636
 216.61;  317.265;  287.920;  357.792; 0.37678
 217.21;  313.519;  290.599;  357.391; 0.46451
 217.81;  317.268;  297.221;  367.800; 0.54663
 218.41;  325.553;  301.628;  379.081; 0.51020
 219.01;  331.297;  307.801;  388.505; 0.53591
 219.61;  318.032;  301.739;  384.906; 0.70795
 220.21;  305.319;  297.568;  378.507; 1.01882
 220.81;  308.865;  283.737;  372.713; 0.54911
 221.41;  314.176;  284.091;  376.024; 0.48512
 222.01;  310.540;  280.426;  372.049; 0.48324
 222.61;  304.928;  298.953;  367.451; 1.05932
 223.21;  306.551;  301.813;  357.103; 1.06709
 223.81;  330.465;  301.952;  360.676; 0.31377
 224.41;  319.113;  281.875;  343.618; 0.21961
 225.01;  308.759;  269.317;  340.250; 0.25490
 225.61;  302.523;  274.108;  341.033; 0.37204
 226.21;  311.721;  273.112;  349.918; 0.29871
 226.81;  316.305;  286.490;  349.175; 0.32273
 227.41;  306.080;  284.059;  344.282; 0.43692
 228.01;  319.387;  302.172;  351.241; 0.45491
 228.61;  323.642;  306.727;  360.474; 0.50207
 229.21;  329.534;  303.825;  362.700; 0.35985
 229.81;  322.278;  308.998;  372.791; 0.68157
 230.41;  320.549;  299.055;  383.396; 0.59372
 231.01;  315.754;  300.808;  405.942; 0.84720
 231.61;  310.239;  287.307;  401.095; 0.69566
 232.21;  320.982;  300.328;  383.489; 0.60492
 232.81;  332.103;  296.307;  370.928; 0.31902
 233.41;  322.172;  302.578;  372.995; 0.55557
 234.00;  308.745;  298.240;  379.918; 0.89069
 234.60;  305.441;  290.487;  363.623; 0.68937
 235.20;  315.076;  295.152;  359.264; 0.50755
 235.80;  306.914;  295.330;  365.432; 0.78186
 236.40;  308.534;  302.765;  379.044; 1.12125
 237.00;  317.635;  303.584;  384.824; 0.76205
 237.60;  335.112;  294.000;  377.651; 0.30851
 238.20;  329.678;  295.121;  389.214; 0.43502
 238.80;  310.153;  274.112;  389.668; 0.50599
 239.40;  311.246;  279.177;  403.402; 0.58813
 240.00;  318.816;  284.599;  402.640; 0.53779
 240.59;  345.797;  298.133;  401.312; 0.33540
 241.19;  329.555;  297.989;  399.745; 0.50834
 241.79;  328.196;  288.710;  384.715; 0.38585
 242.39;  318.398;  292.222;  383.909; 0.54441
 242.99;  338.603;  286.642;  375.121; 0.23116
 243.59;  336.892;  289.230;  388.763; 0.31979
 244.19;  333.367;  286.160;  385.560; 0.32338
 244.79;  332.480;  287.511;  384.652; 0.33449
 245.39;  335.386;  287.293;  395.554; 0.35239
 245.98;  324.950;  273.053;  391.453; 0.35821
 246.58;  307.441;  274.487;  389.290; 0.54204
 247.18;  323.835;  285.342;  384.364; 0.41035
 247.78;  330.911;  295.696;  398.758; 0.46637
 248.38;  343.321;  288.656;  421.162; 0.38453
 248.98;  323.453;  277.356;  419.988; 0.49054
 249.58;  316.470;  265.673;  430.671; 0.51164
 250.17;  333.996;  275.285;  426.842; 0.41185
 250.77;  342.786;  283.143;  431.967; 0.39712
 251.37;  348.889;  286.929;  425.089; 0.34827
 251.97;  340.287;  270.293;  429.805; 0.35773
 252.57;  322.047;  265.298;  436.882; 0.48052
 253.17;  318.988;  272.929;  449.172; 0.58280
 253.77;  318.438;  284.186;  466.282; 0.72562
 254.36;  335.619;  295.474;  468.774; 0.63517
 254.96;  333.408;  295.333;  480.567; 0.68708
 255.56;  327.143;  288.604;  484.301; 0.70568
 256.16;  331.031;  278.462;  506.509; 0.63729
 256.76;  323.630;  277.524;  496.109; 0.67587
 257.36;  334.797;  276.735;  508.603; 0.60135
 257.95;  314.247;  264.992;  503.713; 0.68544
 258.55;  319.276;  264.239;  518.084; 0.66391
 259.15;  290.319;  260.564;  510.454; 0.92420
 259.75;  303.193;  269.345;  523.998; 0.87641
 260.35;  313.469;  267.461;  538.318; 0.76990
 260.94;  325.212;  268.819;  539.764; 0.68165
 261.54;  323.895;  275.530;  547.771; 0.75042
 262.14;  324.247;  279.723;  553.422; 0.78868
 262.74;  339.348;  296.084;  592.169; 0.83529
 263.34;  320.442;  285.302;  604.600; 0.95839
 263.93;  310.052;  271.414;  619.201; 0.95430
 264.53;  309.633;  269.158;  628.783; 0.94867
 265.13;  333.397;  270.950;  628.566; 0.75790
 265.73;  335.639;  275.426;  648.466; 0.79207
 266.33;  335.251;  278.566;  678.397; 0.84841
 266.92;  324.207;  275.029;  689.673; 0.92590
 267.52;  342.923;  279.954;  705.726; 0.83005
 268.12;  351.785;  273.264;  717.281; 0.75242
 268.72;  365.996;  281.951;  749.175; 0.74501
 269.31;  364.321;  293.596;  782.505; 0.83965
 269.91;  353.181;  296.813;  783.686; 0.93638
 270.51;  337.268;  298.884;  823.747; 1.13589
 271.11;  332.219;  296.018;  844.685; 1.18059
 271.70;  339.539;  281.274;  877.686; 1.01014
 272.30;  360.418;  270.568;  887.924; 0.83702
 272.90;  355.580;  264.784;  909.412; 0.85124
 273.50;  356.043;  274.785;  916.521; 0.89749
 274.09;  359.380;  285.359;  947.539; 0.95162
 274.69;  356.842;  293.425;  961.690; 1.02274
 275.29;  351.537;  297.126; 1011.041; 1.11796
 275.89;  365.695;  301.162; 1057.168; 1.06874
 276.48;  380.252;  306.441; 1108.365; 1.03601
 277.08;  388.231;  303.217; 1149.330; 0.99793
 277.68;  370.152;  300.562; 1156.928; 1.09011
 278.28;  385.279;  297.934; 1188.748; 1.00855
 278.87;  399.741;  305.120; 1219.213; 0.98501
 279.47;  420.563;  316.402; 1279.019; 0.96575
 280.07;  437.084;  311.564; 1306.537; 0.89910
 280.66;  461.347;  305.599; 1329.806; 0.81797
 281.26;  465.819;  299.502; 1356.605; 0.80318
 281.86;  460.349;  299.353; 1408.460; 0.83816
 282.46;  451.549;  289.111; 1464.667; 0.85956
 283.05;  472.403;  270.001; 1525.842; 0.79272
 283.65;  486.810;  269.267; 1577.248; 0.77906
 284.25;  491.884;  276.537; 1628.707; 0.79789
 284.84;  499.973;  297.639; 1660.819; 0.82848
 285.44;  534.864;  304.585; 1722.349; 0.78935
 286.04;  570.151;  306.626; 1767.304; 0.74373
 286.63;  590.711;  299.604; 1827.551; 0.72006
 287.23;  591.414;  285.934; 1878.582; 0.71714
 287.83;  591.154;  285.987; 1956.635; 0.73835
 288.42;  613.663;  282.947; 2012.456; 0.71847
 289.02;  639.552;  281.018; 2081.351; 0.70082
 289.62;  667.540;  274.153; 2105.373; 0.66792
 290.21;  672.380;  278.965; 2173.882; 0.68274
 290.81;  690.020;  296.139; 2171.832; 0.67780
 291.41;  696.798;  301.675; 2217.279; 0.68557
 292.00;  724.442;  287.695; 2273.257; 0.65765
 292.60;  747.441;  266.816; 2355.570; 0.63808
 293.20;  784.148;  269.053; 2441.953; 0.62515
 293.79;  811.044;  275.331; 2498.541; 0.61805
 294.39;  828.284;  284.326; 2544.463; 0.61857
 294.99;  843.597;  280.435; 2588.095; 0.61254
 295.58;  864.818;  284.687; 2619.961; 0.60481
 296.18;  881.097;  271.100; 2672.236; 0.59509
 296.78;  908.051;  267.474; 2741.524; 0.58684
 297.37;  946.430;  256.039; 2819.912; 0.56980
 297.97;  990.963;  255.858; 2927.442; 0.56042
 298.57; 1050.074;  262.727; 2989.557; 0.53949
 299.16; 1080.281;  278.359; 3083.789; 0.54387
 299.76; 1112.523;  281.775; 3176.366; 0.54212
 300.35; 1128.539;  281.214; 3269.362; 0.54735
 300.95; 1157.631;  278.404; 3324.462; 0.53964
 301.55; 1208.991;  287.229; 3346.846; 0.52105
 302.14; 1240.165;  278.314; 3431.366; 0.51562
 302.74; 1290.331;  277.164; 3537.862; 0.50763
 303.33; 1341.054;  277.506; 3665.575; 0.50320
 303.93; 1382.419;  284.053; 3763.621; 0.50078
 304.53; 1421.867;  290.889; 3809.743; 0.49295
 305.12; 1437.210;  285.666; 3889.067; 0.49543
 305.72; 1496.563;  304.345; 3962.749; 0.48694
 306.31; 1534.299;  292.556; 4062.826; 0.48234
 306.91; 1599.709;  290.122; 4183.574; 0.47320
 307.51; 1630.877;  280.000; 4278.734; 0.47131
 308.10; 1698.196;  295.710; 4394.048; 0.46571
 308.70; 1712.537;  291.190; 4468.751; 0.46822
 309.29; 1747.584;  287.634; 4547.826; 0.46509
 309.89; 1782.454;  264.902; 4638.675; 0.45971
 310.48; 1838.236;  273.673; 4739.754; 0.45553
 311.08; 1908.928;  268.620; 4876.118; 0.44854
 311.68; 1943.502;  273.221; 4959.384; 0.44803
 312.27; 2000.405;  278.703; 5074.278; 0.44488
 312.87; 2047.322;  271.869; 5225.848; 0.44565
 313.46; 2130.484;  276.691; 5385.013; 0.44022
 314.06; 2192.698;  276.193; 5529.885; 0.43795
 314.65; 2268.047;  282.238; 5632.559; 0.43044
 315.25; 2295.420;  283.262; 5774.255; 0.43599
 315.85; 2369.041;  277.637; 5914.876; 0.43063
 316.44; 2440.771;  287.913; 6071.938; 0.42921
 317.04; 2529.827;  295.255; 6216.984; 0.42325
 317.63; 2606.836;  310.823; 6400.341; 0.42361
 318.23; 2626.433;  298.737; 6546.296; 0.42878
 318.82; 2678.033;  293.221; 6674.883; 0.42748
 319.42; 2711.039;  273.276; 6781.545; 0.42647
 320.01; 2809.783;  280.055; 6929.646; 0.41972
 320.61; 2892.480;  290.511; 7164.652; 0.42192
 321.20; 2979.139;  285.758; 7272.939; 0.41400
 321.80; 3060.895;  292.860; 7497.718; 0.41545
 322.39; 3097.009;  275.154; 7636.540; 0.41642
 322.99; 3148.015;  275.755; 7857.556; 0.42155
 323.58; 3200.352;  286.597; 7977.531; 0.42153
 324.18; 3319.183;  287.901; 8124.673; 0.41251
 324.77; 3429.842;  292.485; 8318.013; 0.40791
 325.37; 3459.993;  278.984; 8442.167; 0.40929
 325.96; 3495.796;  276.253; 8588.958; 0.41195
 326.56; 3548.597;  298.768; 8771.095; 0.41614
 327.15; 3663.269;  300.036; 8947.778; 0.41015
 327.75; 3745.025;  300.925; 9129.536; 0.40882
 328.34; 3801.679;  272.723; 9291.838; 0.40752
 328.94; 3850.094;  266.072; 9447.905; 0.40856
 329.53; 3938.399;  277.765; 9658.876; 0.40870
 330.13; 4021.633;  293.098; 9872.460; 0.40980
 330.72; 4142.373;  297.428;10112.576; 0.40701
 331.32; 4259.192;  296.807;10347.750; 0.40425
 331.91; 4373.188;  286.021;10578.045; 0.40108
 332.51; 4448.943;  290.846;10832.428; 0.40401
 333.10; 4501.539;  280.941;11112.686; 0.40932
 333.69; 4564.049;  268.720;11343.870; 0.41135
 334.29; 4583.151;  259.020;11372.294; 0.40994
 334.88; 4604.760;  263.526;11404.218; 0.40930
 335.48; 4627.706;  274.151;11347.513; 0.40544
 336.07; 4642.213;  277.361;11521.065; 0.41094
 336.67; 4670.240;  271.793;11561.792; 0.40939
 337.26; 4722.853;  270.478;11724.744; 0.41038
 337.86; 4831.216;  274.661;11795.073; 0.40283
 338.45; 4912.052;  285.081;11996.201; 0.40330
 339.04; 4942.567;  280.248;12122.714; 0.40484
 339.64; 4986.005;  279.247;12324.855; 0.40811
 340.23; 5015.019;  276.541;12444.594; 0.40958
 340.83; 5086.424;  283.446;12579.002; 0.40824
 341.42; 5137.905;  284.034;12728.085; 0.40887
 342.02; 5214.884;  280.810;12860.717; 0.40647
 342.61; 5264.947;  285.029;12994.842; 0.40692
 343.20; 5297.442;  280.703;13173.363; 0.40992
 343.80; 5354.953;  275.024;13326.514; 0.40980
 344.39; 5397.568;  277.525;13574.777; 0.41449
 344.99; 5488.041;  284.701;13698.586; 0.41127
 345.58; 5555.454;  281.629;13941.331; 0.41332
 346.17; 5655.077;  272.425;14086.941; 0.40934
 346.77; 5750.649;  263.601;14425.499; 0.41178
 347.36; 5842.899;  267.766;14640.403; 0.41128
 347.96; 5894.574;  271.456;14918.073; 0.41576
 348.55; 5927.899;  272.039;15018.413; 0.41619
 349.14; 5987.410;  269.152;15148.264; 0.41531
 349.74; 6069.796;  282.193;15379.635; 0.41640
 350.33; 6189.451;  292.264;15619.281; 0.41481
 350.92; 6279.244;  292.029;15990.758; 0.41864
 351.52; 6377.857;  276.988;16197.719; 0.41657
 352.11; 6431.504;  277.642;16449.038; 0.41960
 352.70; 6504.935;  293.221;16652.467; 0.42055
 353.30; 6590.834;  299.069;16923.354; 0.42197
 353.89; 6685.632;  289.556;17199.826; 0.42224
 354.49; 6750.587;  295.537;17471.125; 0.42501
 355.08; 6896.043;  303.789;17648.240; 0.42013
 355.67; 6982.350;  306.509;17850.877; 0.41963
 356.27; 7132.230;  292.678;18013.082; 0.41345
 356.86; 7163.863;  288.376;18230.048; 0.41656
 357.45; 7290.811;  297.756;18507.331; 0.41563
 358.05; 7348.107;  297.214;18684.613; 0.41628
 358.64; 7460.788;  292.504;18894.298; 0.41414
 359.23; 7493.979;  289.300;19081.825; 0.41637
 359.83; 7538.543;  289.121;19433.380; 0.42174
 360.42; 7628.418;  293.174;19722.600; 0.42305
 361.01; 7728.651;  287.355;19981.487; 0.42269
 361.61; 7844.720;  287.502;20183.522; 0.42040
 362.20; 7874.920;  294.987;20496.718; 0.42572
 362.79; 7913.474;  302.910;20634.303; 0.42675
 363.38; 7973.669;  301.613;20815.514; 0.42714
 363.98; 8074.554;  289.171;20943.715; 0.42374
 364.57; 8190.989;  277.744;21176.149; 0.42176
 365.16; 8277.313;  288.573;21351.502; 0.42104
 365.76; 8287.419;  293.720;21537.287; 0.42448
 366.35; 8336.364;  294.920;21731.542; 0.42582
 366.94; 8391.303;  286.459;21913.791; 0.42626
 367.53; 8485.972;  286.426;22067.466; 0.42429
 368.13; 8538.982;  291.994;22246.489; 0.42523
 368.72; 8618.446;  285.482;22413.295; 0.42414
 369.31; 8701.835;  292.281;22597.374; 0.42363
 369.91; 8761.659;  283.382;22746.877; 0.42317
 370.50; 8772.207;  291.699;22820.059; 0.42431
 371.09; 8780.756;  278.017;22946.909; 0.42587
 371.68; 8809.844;  286.967;23106.324; 0.42772
 372.28; 8882.759;  294.984;23340.584; 0.42871
 372.87; 8946.671;  297.367;23443.502; 0.42750
 373.46; 9089.111;  297.723;23614.255; 0.42361
 374.05; 9125.361;  287.889;23758.158; 0.42419
 374.65; 9193.690;  290.440;23950.173; 0.42446
 375.24; 9183.530;  272.918;24146.349; 0.42801
 375.83; 9252.209;  275.848;24331.370; 0.42811
 376.42; 9334.042;  273.516;24515.563; 0.42742
 377.02; 9439.646;  293.907;24527.502; 0.42320
 377.61; 9534.486;  288.112;24762.668; 0.42274
 378.20; 9619.286;  297.747;24944.118; 0.42227
 378.79; 9702.391;  297.015;25086.217; 0.42089
 379.38; 9798.296;  282.191;25204.109; 0.41812
 379.98; 9830.338;  267.243;25344.469; 0.41868
 380.57; 9904.585;  272.112;25606.751; 0.41998
 381.16; 9998.940;  291.609;25727.129; 0.41834
 381.75;10128.296;  289.589;25767.151; 0.41322
 382.35;10204.405;  283.703;25937.612; 0.41261
 382.94;10335.824;  271.231;26182.039; 0.41068
 383.53;10444.551;  279.541;26558.760; 0.41250
 384.12;10582.436;  269.432;26865.627; 0.41143
 384.71;10622.834;  284.069;27028.687; 0.41277
 385.31;10762.676;  287.699;27353.893; 0.41227
 385.90;10792.210;  299.731;27598.110; 0.41526
 386.49;10872.109;  283.306;27919.987; 0.41664
 387.08;10916.738;  296.763;28085.602; 0.41775
 387.67;11146.060;  302.047;28384.267; 0.41324
 388.26;11398.537;  312.463;28670.094; 0.40789
 388.86;11566.864;  297.866;29041.131; 0.40665
 389.45;11688.001;  285.685;29324.329; 0.40598
 390.04;11807.813;  279.860;29566.863; 0.40492
 390.63;11969.560;  284.795;29878.048; 0.40357
 391.22;12023.517;  294.422;30097.179; 0.40499
 391.81;12116.916;  303.408;30368.117; 0.40568
 392.41;12179.186;  324.211;30517.642; 0.40601
 393.00;12382.518;  349.022;30747.606; 0.40246
 393.59;12541.458;  379.676;31111.212; 0.40259
 394.18;12744.378;  399.780;31505.223; 0.40136
 394.77;12878.237;  433.703;31930.599; 0.40329
 395.36;12977.077;  473.557;32244.356; 0.40500
 395.95;13118.119;  524.323;32561.017; 0.40549
 396.55;13306.260;  566.236;32856.406; 0.40390
 397.14;13500.726;  594.577;33298.717; 0.40381
 397.73;13691.563;  601.786;33627.642; 0.40192
 398.32;13889.392;  612.294;34204.404; 0.40313
 398.91;14098.911;  621.039;34614.988; 0.40178
 399.50;14356.445;  632.059;35200.379; 0.40119
 400.09;14646.021;  605.452;35675.306; 0.39755
 400.68;14919.898;  582.293;36366.134; 0.39721
 401.27;15174.809;  548.561;37014.694; 0.39676
 401.87;15449.750;  525.771;37604.957; 0.39525
 402.46;15778.983;  501.053;38119.893; 0.39134
 403.05;16124.502;  484.389;38675.942; 0.38773
 403.64;16362.052;  490.521;39240.769; 0.38766
 404.23;16639.411;  484.797;39841.080; 0.38672
 404.82;16821.040;  502.588;40438.695; 0.38869
 405.41;17143.526;  491.629;41140.816; 0.38759
 406.00;17411.100;  497.890;41752.976; 0.38725
 406.59;17753.707;  479.966;42383.807; 0.38487
 407.18;17881.699;  482.149;42943.385; 0.38745
 407.77;18151.024;  466.520;43500.038; 0.38621
 408.37;18353.294;  484.641;43973.019; 0.38628
 408.96;18684.451;  491.806;44465.898; 0.38330
 409.55;18871.180;  504.476;44970.283; 0.38399
 410.14;19087.410;  481.626;45459.452; 0.38335
 410.73;19363.769;  490.299;45905.805; 0.38135
 411.32;19575.722;  492.855;46441.730; 0.38163
 411.91;19917.268;  505.687;47060.216; 0.37990
 412.50;20040.051;  480.732;47624.639; 0.38207
 413.09;20240.197;  484.505;48110.411; 0.38215
 413.68;20370.070;  482.467;48573.257; 0.38348
 414.27;20543.731;  487.472;48936.919; 0.38304
 414.86;20720.465;  462.470;49236.309; 0.38159
 415.45;20924.270;  452.555;49687.411; 0.38112
 416.04;21209.293;  462.743;50083.734; 0.37872
 416.63;21440.837;  468.551;50542.275; 0.37796
 417.22;21493.589;  461.867;50754.683; 0.37863
 417.81;21542.067;  462.159;51068.477; 0.38034
 418.40;21687.610;  476.694;51393.675; 0.38030
 418.99;21939.488;  477.832;51737.830; 0.37812
 419.58;22043.425;  462.218;51969.382; 0.37779
 420.17;22077.783;  452.952;52248.392; 0.37934
 420.76;22069.911;  458.593;52499.836; 0.38167
 421.35;22223.509;  472.988;53005.769; 0.38296
 421.94;22266.580;  474.287;53203.501; 0.38375
 422.53;22378.399;  469.601;53402.299; 0.38311
 423.12;22366.950;  471.552;53493.823; 0.38411
 423.71;22415.020;  463.366;53670.857; 0.38451
 424.30;22332.360;  471.573;53819.883; 0.38745
 424.89;22310.487;  477.611;53888.037; 0.38852
 425.48;22267.849;  477.854;53974.356; 0.39007
 426.07;22245.237;  465.438;53940.695; 0.39010
 426.66;22256.409;  460.097;54040.507; 0.39062
 427.25;22336.031;  453.014;53995.096; 0.38859
 427.84;22359.340;  450.549;53912.043; 0.38742
 428.43;22303.745;  452.848;53711.442; 0.38692
 429.02;22209.861;  457.772;53797.552; 0.38955
 429.61;21986.116;  448.720;53826.107; 0.39416
 430.20;21855.471;  425.820;53758.443; 0.39598
 430.79;21705.272;  437.001;53531.580; 0.39732
 431.38;21707.920;  442.471;53315.543; 0.39556
 431.97;21500.506;  451.391;53001.434; 0.39734
 432.55;21245.415;  445.807;52690.011; 0.39998
 433.14;21038.150;  441.412;52704.411; 0.40440
 433.73;20973.165;  432.971;52655.054; 0.40525
 434.32;20924.411;  424.624;52606.263; 0.40577
 434.91;20837.886;  423.161;52233.737; 0.40447
 435.50;20613.025;  418.064;51971.869; 0.40702
 436.09;20393.819;  418.432;51687.970; 0.40936
 436.68;20144.510;  422.559;51624.303; 0.41433
 437.27;20115.355;  439.214;51661.122; 0.41552
 437.86;19897.154;  433.576;51508.561; 0.41899
 438.45;19804.915;  436.794;51330.326; 0.41958
 439.04;19513.559;  419.148;51043.637; 0.42345
 439.62;19438.924;  412.025;51000.963; 0.42469
 440.21;19217.364;  413.441;50885.373; 0.42880
 440.80;19093.860;  430.263;51024.538; 0.43311
 441.39;18942.134;  449.560;51081.161; 0.43742
 441.98;18859.287;  447.874;51020.625; 0.43883
 442.57;18683.262;  436.530;50797.219; 0.44091
 443.16;18511.984;  425.660;50702.578; 0.44402
 443.75;18292.344;  431.481;50788.909; 0.45016
 444.33;18201.153;  435.018;50969.383; 0.45399
 444.92;18071.450;  440.355;50892.685; 0.45660
 445.51;17981.462;  417.614;50850.986; 0.45810
 446.10;17867.727;  410.612;51056.876; 0.46257
 446.69;17817.416;  404.712;51275.545; 0.46560
 447.28;17815.275;  420.929;51457.726; 0.46748
 447.87;17632.608;  412.657;51329.383; 0.47083
 448.45;17551.989;  413.036;51412.748; 0.47358
 449.04;17305.233;  390.874;51445.980; 0.47978
 449.63;17264.557;  386.972;51646.289; 0.48246
 450.22;17113.409;  381.501;51835.467; 0.48787
 450.81;16996.494;  386.090;52100.884; 0.49323
 451.40;16826.758;  391.666;52058.120; 0.49744
 451.98;16729.403;  398.229;52052.065; 0.50009
 452.57;16719.146;  403.856;52211.469; 0.50180
 453.16;16642.699;  401.626;52273.023; 0.50431
 453.75;16451.393;  391.994;52359.708; 0.51000
 454.34;16231.723;  388.814;52215.013; 0.51471
 454.93;16107.761;  395.232;52494.699; 0.52059
 455.51;16026.296;  391.805;52615.216; 0.52378
 456.10;15924.876;  402.670;52907.445; 0.52925
 456.69;15822.152;  396.116;53041.712; 0.53311
 457.28;15724.978;  403.304;53288.203; 0.53803
 457.87;15619.120;  395.902;53216.666; 0.54030
 458.45;15535.522;  396.108;53304.691; 0.54342
 459.04;15440.911;  388.965;53401.373; 0.54678
 459.63;15389.704;  395.666;53676.141; 0.55065
 460.22;15314.706;  396.420;53639.128; 0.55254
 460.80;15222.377;  400.600;53692.823; 0.55576
 461.39;15179.107;  392.483;53895.895; 0.55851
 461.98;15156.364;  393.792;54364.115; 0.56299
 462.57;15129.236;  398.874;54782.941; 0.56726
 463.16;15090.927;  397.668;55197.607; 0.57166
 463.74;15100.865;  387.726;55673.212; 0.57491
 464.33;15090.751;  376.102;56213.777; 0.57918
 464.92;15056.028;  370.427;56547.398; 0.58267
 465.51;15011.683;  357.831;56911.710; 0.58651
 466.09;15082.570;  358.204;57352.888; 0.58780
 466.68;15086.821;  361.518;57898.436; 0.59188
 467.27;15060.360;  372.331;58292.638; 0.59587
 467.86;15014.123;  368.243;58560.733; 0.59915
 468.44;15063.986;  363.094;58919.922; 0.60023
 469.03;15094.886;  361.882;59322.152; 0.60227
 469.62;15105.466;  367.807;59788.037; 0.60551
 470.20;15133.789;  365.300;60231.337; 0.60784
 470.79;15130.980;  374.762;60677.863; 0.61136
 471.38;15138.621;  358.816;61146.166; 0.61414
 471.97;15162.529;  359.020;61564.389; 0.61642
 472.55;15206.161;  350.111;61933.679; 0.61756
 473.14;15270.759;  362.234;62406.602; 0.61927
 473.73;15258.392;  355.473;62971.535; 0.62341
 474.31;15214.006;  347.428;63489.444; 0.62811
 474.90;15221.497;  350.797;63899.238; 0.63077
 475.49;15202.498;  352.737;64160.914; 0.63316
 476.07;15319.553;  357.870;64473.326; 0.63198
 476.66;15269.426;  347.892;64752.829; 0.63511
 477.25;15271.632;  340.581;65000.332; 0.63654
 477.84;15262.167;  352.761;65155.193; 0.63813
 478.42;15291.263;  344.733;65155.945; 0.63711
 479.01;15269.987;  344.681;65156.001; 0.63773
 479.60;15158.838;  330.210;65156.511; 0.64065
 480.18;15096.942;  334.265;65158.257; 0.64257
 480.77;15060.517;  342.135;65159.480; 0.64383
 481.35;15032.742;  347.900;65159.373; 0.64478
 481.94;14935.221;  344.738;65159.188; 0.64760
 482.53;14872.967;  335.059;65159.923; 0.64924
 483.11;14797.764;  332.000;65160.709; 0.65143
 483.70;14813.455;  318.067;65161.719; 0.65064
 484.29;14772.417;  316.585;65163.324; 0.65185
 484.87;14758.986;  306.461;65164.542; 0.65202
 485.46;14681.713;  315.710;65164.272; 0.65456
 486.05;14646.340;  319.958;65162.920; 0.65573
 486.63;14517.668;  321.237;65162.258; 0.65967
 487.22;14419.662;  317.302;65162.909; 0.66259
 487.81;14346.476;  323.288;65164.368; 0.66500
 488.39;14242.917;  331.856;65164.474; 0.66843
 488.98;14172.499;  337.207;65163.733; 0.67076
 489.56;14012.909;  317.228;65164.794; 0.67531
 490.15;13918.509;  310.772;65166.371; 0.67816
 490.74;13754.941;  302.771;65167.454; 0.68322
 491.32;13649.956;  305.937;65168.774; 0.68671
 491.91;13544.596;  316.111;64974.057; 0.68911
 492.49;13365.181;  317.823;64712.314; 0.69333
 493.08;13218.321;  332.939;64167.133; 0.69496
 493.67;13028.404;  325.500;63724.219; 0.69818
 494.25;12967.041;  343.920;63105.848; 0.69653
 494.84;12738.622;  335.724;62474.087; 0.69984
 495.42;12567.294;  338.386;61959.759; 0.70234
 496.01;12353.525;  319.873;61399.648; 0.70550
 496.59;12259.331;  310.443;60754.114; 0.70402
 497.18;12128.701;  311.106;60078.479; 0.70394
 497.77;11918.210;  311.733;59331.632; 0.70630
 498.35;11806.052;  326.966;58841.796; 0.70736
 498.94;11687.466;  324.499;58030.218; 0.70573
 499.52;11601.442;  324.914;57567.186; 0.70554
 500.11;11410.544;  311.275;56906.600; 0.70749
 500.69;11268.185;  304.601;56449.246; 0.70936
 501.28;11189.983;  315.149;55764.708; 0.70748
 501.86;11069.425;  317.653;55155.772; 0.70760
 502.45;11015.383;  338.264;54632.693; 0.70630
 503.03;10926.674;  328.939;54106.656; 0.70539
 503.62;10890.752;  339.385;53665.090; 0.70363
 504.20;10756.971;  326.215;53123.968; 0.70430
 504.79;10663.497;  326.766;52666.148; 0.70445
 505.37;10627.536;  326.582;52358.543; 0.70339
 505.96;10660.747;  332.269;51859.105; 0.69800
 506.55;10696.831;  327.706;51491.158; 0.69322
 507.13;10747.782;  315.837;51254.709; 0.68868
 507.72;10904.485;  312.954;51138.387; 0.68112
 508.30;11026.711;  319.265;50944.634; 0.67468
 508.89;11127.562;  316.460;50626.145; 0.66778
 509.47;11217.815;  308.593;50383.056; 0.66182
 510.05;11367.295;  311.037;50305.214; 0.65531
 510.64;11521.611;  312.992;50205.541; 0.64848
 511.22;11594.213;  326.961;50242.492; 0.64642
 511.81;11713.567;  323.186;50282.527; 0.64208
 512.39;11862.650;  329.747;50266.280; 0.63648
 512.98;12098.159;  310.647;50213.110; 0.62670
 513.56;12328.027;  306.947;50200.284; 0.61810
 514.15;12577.602;  297.484;50225.841; 0.60914
 514.73;12750.764;  293.306;50310.339; 0.60369
 515.32;12939.801;  298.909;50412.714; 0.59818
 515.90;13115.567;  306.909;50529.464; 0.59340
 516.49;13221.720;  321.223;50576.262; 0.59057
 517.07;13371.608;  323.415;50501.804; 0.58497
 517.66;13579.100;  325.663;50468.951; 0.57788
 518.24;13915.590;  330.491;50581.443; 0.56808
 518.82;14167.260;  322.791;50433.118; 0.55865
 519.41;14454.401;  321.449;50483.238; 0.55014
 519.99;14679.135;  304.901;50520.942; 0.54326
 520.58;15038.382;  313.039;50964.514; 0.53653
 521.16;15355.037;  316.114;51139.212; 0.52884
 521.75;15651.962;  315.579;51354.849; 0.52218
 522.33;15999.636;  314.722;51552.832; 0.51411
 522.91;16258.620;  303.280;51724.449; 0.50824
 523.50;16604.933;  304.661;51708.091; 0.49880
 524.08;16891.708;  292.957;51816.521; 0.49193
 524.67;17216.357;  296.699;52029.160; 0.48537
 525.25;17464.838;  294.898;52244.306; 0.48081
 525.83;17708.545;  300.195;52281.679; 0.47509
 526.42;18061.527;  299.604;52255.985; 0.46615
 527.00;18448.868;  297.414;52315.968; 0.45725
 527.59;18699.306;  293.742;52194.390; 0.45022
 528.17;18937.049;  296.702;52169.461; 0.44449
 528.75;19170.373;  314.407;52237.781; 0.43991
 529.34;19493.462;  317.963;52410.206; 0.43403
 529.92;19780.616;  322.096;52599.701; 0.42921
 530.50;19990.678;  308.099;52577.086; 0.42416
 531.09;20185.516;  310.277;52580.588; 0.41994
 531.67;20420.653;  319.699;52493.409; 0.41424
 532.25;20738.542;  331.224;52474.618; 0.40741
 532.84;20904.027;  319.265;52286.406; 0.40218
 533.42;21061.748;  303.579;52069.121; 0.39685
 534.00;21143.902;  296.379;51800.283; 0.39279
 534.59;21423.304;  306.923;51692.027; 0.38622
 535.17;21620.916;  307.396;51484.292; 0.38042
 535.75;21748.000;  311.833;51399.345; 0.37717
 536.34;21938.963;  327.170;51106.314; 0.37099
 536.92;22092.320;  323.362;50970.357; 0.36672
 537.50;22364.673;  320.767;50555.361; 0.35771
 538.09;22418.926;  304.234;50224.272; 0.35359
 538.67;22453.665;  307.957;49849.711; 0.34968
 539.25;22501.515;  292.004;49517.578; 0.34565
 539.84;22643.730;  298.382;49195.084; 0.34009
 540.42;22737.098;  287.620;48747.408; 0.33418
 541.00;22843.631;  304.712;48328.615; 0.32852
 541.59;22894.817;  293.453;47996.146; 0.32441
 542.17;23052.662;  303.713;47681.974; 0.31862
 542.75;23142.789;  301.687;47449.085; 0.31474
 543.33;23132.126;  321.928;47035.436; 0.31131
 543.92;23178.144;  322.791;46647.473; 0.30682
 544.50;23281.346;  319.637;46212.001; 0.30074
 545.08;23496.761;  303.653;45900.067; 0.29357
 545.67;23538.225;  304.594;45544.519; 0.28940
 546.25;23547.971;  306.855;45243.598; 0.28634
 546.83;23480.601;  305.919;44881.223; 0.28408
 547.41;23557.341;  307.185;44485.963; 0.27879
 548.00;23537.792;  304.048;44073.416; 0.27505
 548.58;23678.067;  293.554;43651.340; 0.26814
 549.16;23746.700;  273.252;43462.973; 0.26480
 549.74;23878.067;  276.221;43125.006; 0.25899
 550.33;23846.770;  287.338;42789.017; 0.25624
 550.91;23792.556;  287.502;42328.145; 0.25251
 551.49;23849.119;  275.114;42084.067; 0.24884
 552.07;23933.731;  281.527;41894.675; 0.24536
 552.66;24152.656;  296.715;41696.915; 0.23941
 553.24;24260.548;  301.874;41407.799; 0.23444
 553.82;24451.156;  287.046;41262.389; 0.22935
 554.40;24455.087;  287.502;41018.645; 0.22669
 554.98;24565.952;  286.839;40927.197; 0.22372
 555.57;24700.847;  295.511;40724.442; 0.21921
 556.15;24898.935;  295.794;40729.857; 0.21576
 556.73;25005.282;  289.872;40584.856; 0.21228
 557.31;25093.876;  280.087;40487.094; 0.20961
 557.89;25243.357;  267.680;40402.230; 0.20600
 558.48;25452.275;  270.725;40389.487; 0.20227
 559.06;25616.431;  269.279;40492.969; 0.20055
 559.64;25799.816;  288.172;40421.363; 0.19677
 560.22;25834.603;  308.276;40298.501; 0.19497
 560.80;25972.549;  311.749;40155.433; 0.19109
 561.39;26150.946;  300.174;40123.139; 0.18766
 561.97;26510.621;  304.256;40118.465; 0.18163
 562.55;26922.084;  305.864;40159.584; 0.17532
 563.13;27186.984;  307.652;40244.814; 0.17196
 563.71;27410.818;  295.320;40343.674; 0.16937
 564.29;27531.626;  296.315;40286.513; 0.16682
 564.88;27692.828;  280.495;40218.374; 0.16344
 565.46;27769.584;  277.260;40267.767; 0.16275
 566.04;27969.393;  269.464;40338.574; 0.16033
 566.62;28142.593;  292.162;40520.457; 0.15970
 567.20;28491.479;  292.265;40647.678; 0.15566
 567.78;28531.551;  300.170;40851.754; 0.15728
 568.36;28735.551;  300.837;41002.754; 0.15577
 568.94;28921.331;  296.460;41004.189; 0.15293
 569.53;29259.339;  295.816;41099.192; 0.14884
 570.11;29540.977;  283.902;41113.488; 0.14474
 570.69;29663.412;  278.869;41248.245; 0.14434
 571.27;29739.429;  279.854;41227.262; 0.14300
 571.85;29871.725;  279.584;41295.220; 0.14177
 572.43;30053.080;  299.078;41479.213; 0.14114
 573.01;30250.412;  288.199;41566.526; 0.13915
 573.59;30469.541;  284.931;41522.011; 0.13550
 574.17;30607.475;  270.419;41423.650; 0.13243
 574.76;30837.562;  278.826;41529.098; 0.13029
 575.34;30967.793;  274.920;41725.997; 0.13050
 575.92;31166.989;  271.771;41808.186; 0.12854
 576.50;31407.967;  265.398;41828.507; 0.12535
 577.08;31596.511;  261.206;41866.048; 0.12311
 577.66;31784.514;  250.776;41875.013; 0.12057
 578.24;31864.345;  252.747;41879.155; 0.11952
 578.82;31997.098;  257.942;41897.583; 0.11791
 579.40;32170.058;  266.978;41903.210; 0.11564
 579.98;32279.810;  273.567;41841.961; 0.11353
 580.56;32355.497;  281.852;41853.319; 0.11265
 581.14;32495.010;  291.659;41917.834; 0.11147
 581.72;32613.425;  280.280;42082.244; 0.11155
 582.30;32796.667;  273.151;42074.467; 0.10899
 582.88;32953.485;  274.650;42152.288; 0.10772
 583.46;33193.668;  282.363;42189.821; 0.10495
 584.04;33372.617;  282.956;42171.457; 0.10240
 584.62;33513.966;  265.125;42197.830; 0.10078
 585.21;33547.911;  267.265;42241.428; 0.10079
 585.79;33600.840;  273.754;42392.009; 0.10167
 586.37;33704.139;  277.118;42415.309; 0.10058
 586.95;33916.325;  275.522;42455.787; 0.09824
 587.53;34091.719;  269.979;42469.819; 0.09611
 588.11;34244.811;  278.442;42585.262; 0.09536
 588.69;34364.060;  282.733;42557.865; 0.09357
 589.27;34526.667;  283.424;42506.477; 0.09097
 589.85;34723.470;  276.026;42443.602; 0.08782
 590.43;34899.812;  271.715;42599.939; 0.08720
 591.01;35053.715;  278.076;42722.853; 0.08655
 591.59;35174.471;  288.299;42936.945; 0.08725
 592.16;35284.849;  287.924;42891.657; 0.08542
 592.74;35351.253;  291.617;42886.045; 0.08455
 593.32;35313.183;  293.193;42739.948; 0.08353
 593.90;35402.545;  297.895;42708.966; 0.08211
 594.48;35487.608;  288.777;42603.037; 0.07996
 595.06;35552.361;  285.245;42684.475; 0.07999
 595.64;35669.786;  272.769;42709.242; 0.07877
 596.22;35754.686;  276.890;42757.472; 0.07823
 596.80;35861.178;  268.138;42505.619; 0.07433
 597.38;35779.126;  264.245;42457.558; 0.07483
 597.96;35740.474;  262.869;42299.911; 0.07368
 598.54;35796.967;  268.057;42320.734; 0.07321
 599.12;35853.317;  272.769;42174.074; 0.07101
 599.70;35921.525;  272.156;42133.628; 0.06976
 600.28;35848.768;  269.178;41999.881; 0.06925
 600.86;35890.138;  273.568;41898.236; 0.06770
 601.44;35798.554;  279.130;41816.989; 0.06798
 602.02;35832.215;  273.135;41601.984; 0.06530
 602.59;35849.408;  269.019;41487.164; 0.06388
 603.17;35862.218;  254.435;41427.991; 0.06307
 603.75;35753.572;  264.600;41407.036; 0.06420
 604.33;35641.234;  268.544;41269.041; 0.06412
 604.91;35565.835;  272.574;41056.648; 0.06280
 605.49;35627.932;  271.546;40985.067; 0.06127
 606.07;35464.440;  254.900;40828.877; 0.06159
 606.65;35336.266;  260.422;40696.701; 0.06176
 607.23;35210.681;  264.441;40448.820; 0.06066
 607.80;35217.229;  277.156;40221.379; 0.05813
 608.38;35131.683;  277.256;40025.464; 0.05706
 608.96;35002.899;  285.786;39921.000; 0.05754
 609.54;34745.929;  288.246;39743.725; 0.05882
 610.12;34539.912;  283.928;39528.375; 0.05904
 610.70;34186.510;  273.259;39095.265; 0.05871
 611.28;34121.313;  259.195;38813.390; 0.05636
 611.85;33968.805;  265.841;38433.913; 0.05403
 612.43;33784.834;  260.695;38304.961; 0.05493
 613.01;33573.709;  263.202;38019.161; 0.05440
 613.59;33375.668;  249.299;37795.112; 0.05439
 614.17;33240.293;  240.914;37668.085; 0.05468
 614.75;33060.410;  222.778;37521.205; 0.05532
 615.32;32932.660;  209.277;37291.775; 0.05431
 615.90;32902.444;  219.080;36866.572; 0.04972
 616.48;32680.519;  232.952;36658.988; 0.05023
 617.06;32377.692;  255.157;36308.488; 0.05014
 617.64;32113.678;  246.140;36072.812; 0.05086
 618.22;31802.046;  241.049;35666.522; 0.05016
 618.79;31722.138;  228.178;35515.632; 0.04939
 619.37;31451.854;  227.104;35180.352; 0.04899
 619.95;31354.139;  231.387;34894.600; 0.04679
 620.53;30956.375;  218.869;34491.494; 0.04728
 621.11;30713.486;  206.529;34156.975; 0.04645
 621.68;30455.207;  201.116;33920.700; 0.04710
 622.26;30413.305;  202.843;33803.106; 0.04619
 622.84;30176.912;  212.594;33643.042; 0.04754
 623.42;30001.271;  214.208;33340.072; 0.04614
 623.99;29714.356;  232.130;33128.823; 0.04759
 624.57;29681.402;  239.695;32874.211; 0.04471
 625.15;29590.465;  249.244;32723.283; 0.04406
 625.73;29442.628;  235.066;32483.448; 0.04301
 626.30;29178.978;  228.444;32290.122; 0.04433
 626.88;28842.131;  228.031;32032.596; 0.04591
 627.46;28630.634;  230.061;31766.787; 0.04549
 628.04;28460.710;  242.419;31549.234; 0.04511
 628.61;28445.248;  241.899;31249.103; 0.04116
 629.19;28338.587;  244.829;31015.066; 0.03952
 629.77;28084.285;  231.831;30736.758; 0.03951
 630.35;27775.697;  234.217;30562.869; 0.04187
 630.92;27620.402;  232.092;30375.921; 0.04163
 631.50;27491.605;  220.757;30199.145; 0.04111
 632.08;27334.132;  206.521;29949.680; 0.03998
 632.66;27062.257;  196.801;29744.460; 0.04133
 633.23;26823.885;  216.776;29426.430; 0.04053
 633.81;26662.816;  225.566;29138.020; 0.03887
 634.39;26622.908;  220.298;28844.754; 0.03509
 634.96;26506.617;  221.956;28624.791; 0.03366
 635.54;26275.357;  216.680;28606.896; 0.03722
 636.12;25942.066;  214.735;28334.976; 0.03862
 636.69;25825.695;  204.526;28222.591; 0.03884
 637.27;25604.961;  199.403;27913.834; 0.03778
 637.85;25416.531;  217.219;27696.062; 0.03761
 638.42;25139.123;  206.286;27392.989; 0.03758
 639.00;24970.235;  223.367;27259.457; 0.03842
 639.58;24798.373;  209.789;26981.612; 0.03694
 640.15;24584.924;  222.891;26790.445; 0.03764
 640.73;24332.039;  204.119;26492.226; 0.03724
 641.31;24330.822;  216.013;26471.006; 0.03693
 641.88;24153.271;  210.908;26285.787; 0.03706
 642.46;24207.387;  226.803;26132.901; 0.03354
 643.04;23914.836;  214.697;25934.349; 0.03551
 643.61;23865.618;  223.925;25817.463; 0.03445
 644.19;23634.401;  209.153;25659.577; 0.03601
 644.77;23507.183;  224.048;25468.358; 0.03512
 645.34;23264.965;  211.943;25293.805; 0.03663
 645.92;23082.748;  214.504;25070.586; 0.03620
 646.49;22930.864;  218.399;24938.033; 0.03678
 647.07;22846.646;  220.293;24745.814; 0.03500
 647.65;22725.095;  224.188;24564.928; 0.03413
 648.22;22613.211;  218.082;24391.042; 0.03318
 648.80;22534.327;  227.310;24368.156; 0.03431
 649.37;22539.109;  227.872;24339.937; 0.03371
 649.95;22470.558;  227.433;24242.051; 0.03328
 650.53;22404.341;  209.328;24121.165; 0.03236
 651.10;22275.123;  214.222;24054.279; 0.03368
 651.68;22178.239;  211.450;24020.060; 0.03497
 652.25;22023.354;  221.012;23899.174; 0.03584
 652.83;21931.137;  211.573;23700.955; 0.03402
 653.41;21870.253;  208.468;23524.069; 0.03195
 653.98;21913.035;  212.362;23340.850; 0.02767
 654.56;21878.484;  211.590;23307.630; 0.02774
 655.13;21791.600;  208.818;23285.744; 0.02907
 655.71;21600.382;  207.379;23284.525; 0.03291
 656.28;21454.165;  194.941;23185.639; 0.03400
 656.86;21440.947;  188.169;22962.753; 0.03003
 657.43;21453.063;  190.397;22872.868; 0.02807
 658.01;21471.512;  212.958;22793.315; 0.02620
 658.58;21477.961;  207.519;22876.096; 0.02765
 659.16;21436.077;  211.747;22798.876; 0.02703
 659.74;21376.193;  196.309;22777.324; 0.02782
 660.31;21253.642;  204.203;22714.438; 0.02914
 660.89;21255.091;  198.098;22687.885; 0.02859
 661.46;21202.540;  206.659;22545.999; 0.02694
 662.04;21120.322;  208.554;22516.780; 0.02807
 662.61;21077.105;  207.448;22500.894; 0.02866
 663.19;21061.221;  206.676;22626.342; 0.03143
 663.76;21152.670;  209.571;22600.456; 0.02903
 664.34;21153.119;  211.132;22526.237; 0.02758
 664.91;21198.568;  214.027;22413.684; 0.02445
 665.49;21195.684;  216.922;22441.798; 0.02506
 666.06;21144.466;  213.150;22513.246; 0.02751
 666.64;21160.248;  212.044;22555.693; 0.02801
 667.21;21194.031;  216.606;22500.140; 0.02623
 667.79;21243.480;  204.167;22400.588; 0.02325
 668.36;21226.929;  201.395;22402.702; 0.02363
 668.93;21218.712;  202.290;22421.149; 0.02416
 669.51;21175.827;  198.184;22426.263; 0.02515
 670.08;21119.276;  192.412;22387.044; 0.02554
 670.66;21114.059;  189.307;22273.825; 0.02343
 671.23;21249.841;  213.201;22361.606; 0.02237
 671.81;21309.290;  219.763;22403.720; 0.02197
 672.38;21271.073;  224.324;22501.167; 0.02467
 672.96;21222.189;  213.552;22510.281; 0.02584
 673.53;21278.971;  213.113;22482.395; 0.02413
 674.10;21235.753;  213.008;22524.843; 0.02585
 674.68;21235.536;  228.236;22505.290; 0.02549
 675.25;21097.652;  221.131;22417.404; 0.02662
 675.83;21142.434;  215.692;22370.185; 0.02476
 676.40;21087.550;  203.253;22300.299; 0.02451
 676.98;21093.999;  209.148;22323.413; 0.02484
 677.55;21023.448;  210.043;22281.527; 0.02549
 678.12;20985.230;  223.937;22260.975; 0.02590
 678.70;20985.679;  221.832;22236.089; 0.02540
 679.27;21027.462;  229.060;22163.870; 0.02310
 679.85;20998.244;  216.621;22124.984; 0.02293
 680.42;20996.360;  216.516;22133.431; 0.02314
 680.99;20903.476;  192.744;22099.212; 0.02438
 681.57;20944.925;  198.305;22028.659; 0.02211
 682.14;20940.041;  205.866;21848.773; 0.01863
 682.71;20848.156;  210.761;21795.554; 0.01949
 683.29;20696.606;  200.656;21706.668; 0.02089
 683.86;20500.055;  185.884;21546.116; 0.02181
 684.43;20440.170;  198.112;21362.230; 0.01935
 685.01;20310.619;  197.006;21197.011; 0.01873
 685.58;20352.069;  206.234;21272.458; 0.01940
 686.16;20408.184;  206.462;21269.239; 0.01813
 686.73;20445.300;  215.023;21397.686; 0.01998
 687.30;20350.749;  207.585;21388.467; 0.02182
 687.88;20276.198;  217.479;21321.914; 0.02207
 688.45;20186.981;  210.707;21118.362; 0.01979
 689.02;20106.430;  213.602;21022.142; 0.01955
 689.60;19932.212;  190.497;20889.257; 0.02056
 690.17;19943.661;  199.391;20926.704; 0.02110
 690.74;19913.110;  189.619;20805.485; 0.01922
 691.31;19914.560;  204.181;20824.932; 0.01961
 691.89;19836.342;  191.742;20754.713; 0.01984
 692.46;19804.124;  212.637;20700.494; 0.01943
 693.03;19783.907;  229.198;20611.941; 0.01801
 693.61;19671.356;  234.759;20426.722; 0.01656
 694.18;19587.472;  237.320;20424.503; 0.01839
 694.75;19461.921;  206.882;20414.950; 0.02098
 695.32;19409.036;  208.110;20458.064; 0.02310
 695.90;19335.486;  203.004;20312.512; 0.02163
 696.47;19369.268;  203.899;20210.626; 0.01866
 697.04;19389.384;  214.460;20060.073; 0.01493
 697.62;19332.166;  213.355;20039.187; 0.01577
 698.19;19275.615;  229.250;19951.301; 0.01514
 698.76;19221.064;  211.144;19960.082; 0.01656
 699.33;19239.180;  210.706;19883.196; 0.01446
 699.91;19099.296;  196.600;19795.977; 0.01572
 700.48;18998.078;  206.162;19674.091; 0.01535
 701.05;18871.194;  208.056;19645.538; 0.01766
 701.62;18795.977;  232.951;19536.652; 0.01699
 702.20;18693.759;  235.179;19463.767; 0.01775
 702.77;18613.208;  232.073;19314.881; 0.01627
 703.34;18620.657;  217.301;19303.995; 0.01583
 703.91;18539.106;  214.196;19161.775; 0.01451
 704.48;18518.889;  220.091;19054.223; 0.01252
 705.06;18427.338;  212.652;18964.004; 0.01261
 705.63;18386.454;  221.213;18940.118; 0.01304
 706.20;18284.236;  214.441;18934.565; 0.01536
 706.77;18130.685;  221.336;18864.679; 0.01744
 707.34;18087.467;  215.564;18821.793; 0.01749
 707.92;17982.583;  205.792;18710.907; 0.01744
 708.49;17917.032;  193.353;18575.022; 0.01583
 709.06;17771.815;  193.248;18466.136; 0.01682
 709.63;17702.930;  194.476;18431.916; 0.01772
 710.20;17698.046;  191.037;18446.697; 0.01819
 710.77;17736.495;  187.932;18338.145; 0.01464
 711.35;17784.611;  185.826;18305.592; 0.01267
 711.92;17833.394;  205.721;18271.706; 0.01067
 712.49;17914.176;  207.616;18372.487; 0.01110
 713.06;17946.292;  215.844;18405.934; 0.01112
 713.63;18003.407;  209.405;18498.382; 0.01192
 714.20;17977.523;  212.300;18556.829; 0.01394
 714.78;17907.306;  209.528;18487.277; 0.01400
 715.35;17817.088;  205.756;18407.724; 0.01433
 715.92;17741.204;  207.317;18351.838; 0.01487
 716.49;17730.653;  222.545;18343.285; 0.01494
 717.06;17713.769;  226.106;18273.400; 0.01368
 717.63;17744.218;  217.334;18198.847; 0.01112
 718.20;17800.334;  210.895;18175.294; 0.00916
 718.77;17747.116;  224.790;18170.075; 0.01036
 719.35;17647.232;  226.351;18153.189; 0.01243
 719.92;17443.681;  211.913;18038.303; 0.01473
 720.49;17379.130;  197.474;17879.084; 0.01246
 721.06;17297.246;  177.369;17774.532; 0.01194
 721.63;17315.361;  190.930;17799.979; 0.01212
 722.20;17305.477;  195.825;17861.426; 0.01389
 722.77;17310.926;  203.386;17825.540; 0.01287
 723.34;17320.709;  196.947;17821.321; 0.01251
 723.91;17299.824;  205.509;17813.102; 0.01285
 724.48;17252.940;  222.070;17777.883; 0.01318
 725.05;17182.723;  212.964;17617.997; 0.01100
 725.62;17037.505;  195.192;17490.778; 0.01153
 726.20;17057.954;  186.754;17461.892; 0.01028
 726.77;17026.070;  192.982;17446.339; 0.01071
 727.34;17107.852;  199.210;17412.787; 0.00776
 727.91;17065.301;  209.104;17361.567; 0.00757
 728.48;17120.751;  214.999;17354.015; 0.00595
 729.05;17083.200;  215.560;17353.795; 0.00691
 729.62;17053.315;  192.788;17320.910; 0.00684
 730.19;16930.431;  185.683;17297.024; 0.00941
 730.76;16947.880;  188.578;17324.138; 0.00964
 731.33;16888.996;  211.472;17306.252; 0.01073
 731.90;16918.778;  215.034;17274.033; 0.00914
 732.47;16931.894;  206.261;17242.147; 0.00798
 733.04;16967.343;  191.156;17245.594; 0.00714
 733.61;16918.792;  168.051;17256.042; 0.00866
 734.18;16809.242;  173.945;17191.156; 0.00986
 734.75;16688.024;  184.507;17077.270; 0.01012
 735.32;16640.806;  211.401;16955.384; 0.00824
 735.89;16632.589;  203.963;16851.831; 0.00576
 736.46;16597.038;  212.191;16734.945; 0.00364
 737.03;16498.820;  203.085;16674.393; 0.00465
 737.60;16366.269;  203.647;16580.840; 0.00573
 738.17;16289.385;  173.208;16558.621; 0.00720
 738.74;16186.834;  184.103;16523.735; 0.00905
 739.31;16099.283;  185.331;16430.849; 0.00896
 739.88;16066.399;  195.225;16300.630; 0.00636
 740.45;16019.515;  176.120;16234.411; 0.00585
 741.02;15974.964;  174.348;16293.858; 0.00868
 741.59;15892.413;  171.909;16337.305; 0.01212
 742.15;16021.195;  177.804;16325.753; 0.00827
 742.72;16117.645;  185.365;16376.867; 0.00701
 743.29;16226.760;  187.593;16351.648; 0.00337
 743.86;16187.876;  195.154;16298.095; 0.00298
 744.43;16173.325;  197.049;16220.543; 0.00128
 745.00;16073.108;  201.277;16240.323; 0.00455
 745.57;16057.557;  209.172;16261.771; 0.00556
 746.14;16022.672;  201.733;16198.552; 0.00480
 746.71;15990.122;  208.294;16179.666; 0.00518
 747.28;15925.571;  196.522;16170.446; 0.00671
 747.85;15849.686;  172.417;16124.227; 0.00754
 748.42;15905.136;  173.645;16103.675; 0.00545
 748.98;15882.918;  177.206;16075.455; 0.00529
 749.55;15976.034;  197.767;16011.569; 0.00098
 750.12;15934.483;  197.662;16015.683; 0.00224
 750.69;15892.599;  204.890;15955.131; 0.00173
 751.26;15820.381;  216.118;15910.245; 0.00249
 751.83;15792.830;  206.013;15821.026; 0.00078
 752.40;15816.279;  204.907;15769.807;-0.00129
 752.97;15631.395;  192.802;15780.587; 0.00418
 753.53;15564.511;  195.697;15773.035; 0.00585
 754.10;15470.960;  187.925;15706.815; 0.00665
 754.67;15564.742;  185.486;15666.263; 0.00286
 755.24;15511.191;  192.714;15616.044; 0.00296
 755.81;15475.640;  200.608;15583.491; 0.00306
 756.38;15388.089;  223.503;15510.272; 0.00349
 756.94;15294.539;  215.064;15482.386; 0.00538
 757.51;15243.321;  204.292;15502.833; 0.00743
 758.08;15152.770;  196.520;15545.281; 0.01125
 758.65;15173.219;  213.748;15443.728; 0.00778
 759.22;15062.335;  220.643;15351.176; 0.00837
 759.79;14978.117;  205.538;15180.623; 0.00591
 760.35;14792.566;  191.432;15130.404; 0.00993
 760.92;14706.016;  201.994;14987.518; 0.00835
 761.49;14615.131;  208.555;14849.965; 0.00702
 762.06;14553.580;  211.783;14641.079; 0.00264
 762.63;14476.030;  201.011;14500.527; 0.00074
 763.19;14373.812;  203.239;14469.641; 0.00293
 763.76;14251.928;  215.133;14423.422; 0.00527
 764.33;14126.710;  219.695;14294.202; 0.00520
 764.90;14038.826;  218.589;14107.650; 0.00216
 765.46;13854.942;  197.817;13914.097; 0.00188
 766.03;13713.724;  196.045;13749.878; 0.00116
 766.60;13521.506;  197.940;13624.992; 0.00336
 767.17;13400.956;  205.501;13465.773; 0.00213
 767.73;13235.071;  207.063;13413.220; 0.00590
 768.30;13108.520;  206.624;13205.001; 0.00324
 768.87;13007.970;  215.185;13045.782; 0.00128
 769.44;12830.085;  213.413;12836.229; 0.00021
 770.00;12605.201;  215.975;12686.677; 0.00285
 770.57;12362.317;  216.536;12525.791; 0.00581
 771.14;12147.766;  213.430;12350.238; 0.00731
 771.71;11939.548;  198.325;12122.686; 0.00672
 772.27;11777.331;  206.220;11935.800; 0.00591
 772.84;11653.447;  209.448;11715.914; 0.00236
 773.41;11521.229;  213.676;11595.695; 0.00285
 773.97;11375.345;  205.904;11440.809; 0.00254
 774.54;11166.794;  213.798;11314.923; 0.00583
 775.11;11022.576;  232.360;11227.370; 0.00817
 775.67;10876.025;  228.588;11074.818; 0.00803
 776.24;10759.808;  222.482;10902.265; 0.00583
 776.81;10658.924;  220.377;10665.712; 0.00028
 777.38;10499.373;  208.272;10484.160;-0.00064
 777.94;10440.155;  214.166;10350.941;-0.00381
 778.51;10272.271;  199.728;10214.721;-0.00249
 779.08;10173.387;  210.622;10137.835;-0.00155
 779.64; 9998.169;  201.517;10058.283; 0.00266
 780.21; 9866.951;  202.745; 9970.064; 0.00461
 780.78; 9743.400;  211.639; 9870.178; 0.00574
 781.34; 9676.850;  212.534; 9787.625; 0.00505
 781.91; 9632.965;  225.762; 9703.406; 0.00324
 782.47; 9623.414;  227.990; 9633.520; 0.00047
 783.04; 9545.864;  238.551; 9482.634;-0.00296
 783.61; 9454.646;  245.779; 9385.415;-0.00328
 784.17; 9368.095;  246.674; 9320.196;-0.00229
 784.74; 9273.544;  236.569; 9240.310;-0.00160
 785.31; 9225.660;  244.797; 9256.090; 0.00147
 785.87; 9143.776;  248.691; 9137.538;-0.00030
 786.44; 9096.225;  252.252; 9126.319; 0.00148
 787.00; 9030.341;  239.480; 9065.766; 0.00175
 787.57; 8980.456;  222.375; 9005.880; 0.00126
 788.14; 8955.905;  242.936; 8941.661;-0.00071
 788.70; 8962.354;  252.831; 8828.442;-0.00673
 789.27; 8917.137;  261.392; 8880.222;-0.00186
 789.83; 8856.919;  247.620; 8836.003;-0.00106
 790.40; 8817.368;  230.182; 8838.117; 0.00105
 790.96; 8772.484;  235.076; 8799.898; 0.00139
 791.53; 8747.267;  229.304; 8766.679; 0.00099
 792.10; 8712.716;  224.866; 8777.126; 0.00328
 792.66; 8710.831;  219.094; 8720.574; 0.00050
 793.23; 8724.281;  214.988; 8733.688; 0.00048
 793.79; 8719.730;  216.216; 8675.468;-0.00227
 794.36; 8661.845;  210.777; 8660.249;-0.00008
 794.92; 8572.628;  219.339; 8606.363; 0.00175
 795.49; 8500.410;  232.233; 8532.811; 0.00170
 796.05; 8491.859;  243.461; 8505.258; 0.00070
 796.62; 8493.642;  248.023; 8527.372; 0.00177
 797.19; 8454.091;  237.917; 8507.820; 0.00283
 797.75; 8422.873;  226.145; 8453.600; 0.00162
 798.32; 8366.322;  218.373; 8393.714; 0.00146
 798.88; 8379.438;  222.601; 8383.829; 0.00023
 799.45; 8441.554;  224.829; 8436.276;-0.00028
 800.01; 8544.336;  220.391; 8517.723;-0.00139
 800.58; 8669.452;  215.952; 8677.504; 0.00041
 801.14; 8905.901;  222.513; 8916.952; 0.00055
 801.71; 9217.350;  218.074; 9117.399;-0.00485
 802.27; 9468.466;  206.969; 9310.180;-0.00749
 802.84; 9700.582;  188.864; 9480.294;-0.01018
 803.40; 9867.031;  179.758; 9723.075;-0.00650
 803.96;10147.480;  198.986;10006.189;-0.00621
 804.53;10486.596;  210.548;10273.303;-0.00911
 805.09;10851.712;  208.442;10576.417;-0.01138
 805.66;11251.827;  200.670;10926.198;-0.01299
 806.22;11531.276;  172.898;11264.978;-0.01030
 806.79;11866.059;  185.793;11622.426;-0.00915
 807.35;12154.175;  182.354;11886.873;-0.00981
 807.92;12531.957;  214.582;12161.654;-0.01326
 808.48;12821.406;  221.810;12436.768;-0.01346
 809.05;13082.522;  217.705;12708.882;-0.01280
 809.61;13302.638;  213.933;13054.330;-0.00832
 810.17;13592.087;  218.827;13355.110;-0.00776
 810.74;14030.536;  231.055;13671.891;-0.01144
 811.30;14362.652;  226.617;13899.672;-0.01446
 811.87;14674.767;  214.511;14212.453;-0.01411
 812.43;14940.883;  214.406;14571.233;-0.01104
 812.99;15254.999;  216.967;14881.014;-0.01094
 813.56;15608.115;  221.862;15191.462;-0.01192
 814.12;15862.230;  221.090;15523.909;-0.00950
 814.69;16253.013;  216.318;15866.356;-0.01060
 815.25;16540.795;  210.213;16143.804;-0.01069
 815.81;16894.578;  200.774;16302.251;-0.01569
 816.38;17150.027;  196.335;16642.699;-0.01319
 816.94;17519.142;  193.897;16882.479;-0.01626
 817.51;17878.592;  192.791;17283.594;-0.01486
 818.07;18176.374;  201.019;17504.374;-0.01655
 818.63;18381.490;  202.247;17804.155;-0.01402
 819.20;18546.606;  201.808;18033.936;-0.01231
 819.76;18709.388;  209.370;18216.050;-0.01174
 820.32;18950.504;  216.598;18394.831;-0.01308
 820.89;19123.953;  218.159;18583.278;-0.01260
 821.45;19297.069;  193.387;18775.726;-0.01202
 822.01;19354.184;  176.615;18965.173;-0.00890
 822.58;19430.300;  180.843;19065.620;-0.00831
 823.14;19459.083;  194.404;19233.068;-0.00513
 823.70;19623.198;  202.299;19352.182;-0.00610
 824.27;19692.647;  193.194;19462.963;-0.00515
 824.83;19783.763;  215.421;19467.743;-0.00707
 825.39;19737.879;  215.649;19374.524;-0.00816
 825.95;19632.328;  221.211;19316.972;-0.00711
 826.52;19463.110;  191.105;19274.752;-0.00427
 827.08;19229.226;  189.000;19152.200;-0.00176
 827.64;18974.009;  175.895;18949.314;-0.00057
 828.21;18797.791;  175.123;18660.095;-0.00322
 828.77;18586.573;  181.351;18397.542;-0.00448
 829.33;18300.689;  183.579;18029.323;-0.00655
 829.89;17843.805;  181.807;17638.104;-0.00509
 830.46;17446.921;  185.701;17297.218;-0.00378
 831.02;17129.036;  190.596;16895.332;-0.00603
 831.58;16846.152;  201.157;16540.779;-0.00804
 832.15;16393.268;  185.052;16128.893;-0.00714
 832.71;15935.384;  188.280;15811.341;-0.00343
 833.27;15419.166;  178.841;15353.455;-0.00188
 833.83;14961.615;  169.736;14940.569;-0.00062
 834.39;14585.064;  164.297;14394.016;-0.00579
 834.96;14171.847;  162.192;13925.464;-0.00771
 835.52;13776.963;  187.086;13474.578;-0.00977
 836.08;13271.412;  188.981;13047.025;-0.00751
 836.64;12810.194;  194.876;12619.473;-0.00662
 837.21;12394.643;  198.770;12148.920;-0.00884
 837.77;11974.092;  198.332;11759.367;-0.00799
 838.33;11580.541;  206.893;11447.148;-0.00512
 838.89;11094.324;  203.121;11001.596;-0.00371
 839.45;10651.773;  205.349;10589.710;-0.00259
 840.02;10195.555;  209.910;10134.490;-0.00266
 840.58; 9870.004;  201.805; 9836.938;-0.00149
 841.14; 9436.787;  224.699; 9457.052; 0.00095
 841.70; 9086.236;  220.594; 9049.833;-0.00179
 842.26; 8614.352;  218.155; 8613.280;-0.00006
 842.82; 8280.801;  209.050; 8233.061;-0.00258
 843.39; 7894.250;  200.278; 7802.175;-0.00523
 843.95; 7547.699;  213.839; 7446.956;-0.00601
 844.51; 7208.481;  213.734; 7076.737;-0.00826
 845.07; 6912.597;  223.295; 6751.184;-0.01061
 845.63; 6630.713;  228.523; 6447.965;-0.01258
 846.19; 6394.829;  213.418; 6205.745;-0.01349
 846.75; 6212.278;  212.646; 6042.860;-0.01244
 847.32; 6002.727;  191.874; 5828.307;-0.01324
 847.88; 5776.843;  198.435; 5647.088;-0.01022
 848.44; 5481.958;  182.996; 5418.202;-0.00526
 849.00; 5328.741;  188.224; 5206.649;-0.01044
 849.56; 5175.523;  183.119; 5035.763;-0.01233
 850.12; 5107.972;  176.680; 4913.211;-0.01750
 850.68; 4994.421;  181.908; 4877.325;-0.01070
 851.24; 4963.204;  184.136; 4806.439;-0.01448
 851.80; 4918.653;  199.364; 4790.220;-0.01198
 852.37; 4935.435;  196.592; 4731.334;-0.01912
 852.93; 4866.218;  204.820; 4729.448;-0.01293
 853.49; 4818.334;  212.715; 4650.895;-0.01608
 854.05; 4771.449;  223.943; 4597.676;-0.01692
 854.61; 4763.898;  224.171; 4520.790;-0.02390
 855.17; 4750.347;  234.066; 4501.904;-0.02457
 855.73; 4678.463;  222.627; 4484.352;-0.01934
 856.29; 4655.912;  213.855; 4475.132;-0.01804
 856.85; 4655.695;  192.749; 4517.913;-0.01362
 857.41; 4761.144;  203.644; 4600.027;-0.01563
 857.97; 4819.260;  205.205; 4760.141;-0.00560
 858.53; 4922.709;  207.433; 4902.255;-0.00189
 859.09; 5077.491;  192.328; 5028.370;-0.00439
 859.65; 5322.607;  184.889; 5166.484;-0.01340
 860.21; 5599.389;  182.451; 5403.598;-0.01599
 860.77; 5877.838;  179.679; 5685.045;-0.01495
 861.33; 6250.954;  189.573; 6014.826;-0.01726
 861.89; 6606.403;  205.135; 6331.273;-0.01908
 862.45; 7007.852;  215.363; 6656.387;-0.02307
 863.01; 7367.635;  205.924; 6960.168;-0.02544
 863.57; 7760.417;  191.152; 7240.949;-0.03088
 864.13; 8058.866;  180.713; 7598.730;-0.02614
 864.69; 8322.649;  188.608; 7928.510;-0.02157
 865.25; 8631.431;  208.502; 8274.958;-0.01878
 865.81; 8904.214;  215.730; 8598.739;-0.01554
 866.37; 9266.663;  213.625; 8883.853;-0.01876
 866.93; 9582.445;  200.853; 9198.967;-0.01813
 867.49;10038.228;  216.081; 9536.081;-0.02279
 868.05;10316.677;  210.642; 9849.195;-0.02057
 868.61;10651.792;  206.870;10116.309;-0.02286
 869.17;10971.241;  185.765;10306.090;-0.02764
 869.73;11387.357;  202.660;10652.537;-0.02951
 870.29;11709.473;  209.554;10985.985;-0.02822
 870.85;11980.589;  212.115;11316.099;-0.02524
 871.41;12223.371;  192.010;11700.213;-0.01931
 871.97;12530.487;  179.571;12032.994;-0.01786
 872.53;12882.603;  184.799;12414.108;-0.01633
 873.09;13322.385;  192.361;12748.222;-0.01942
 873.65;13837.834;  202.922;13125.336;-0.02331
 874.20;14259.283;  204.150;13530.783;-0.02311
 874.76;14686.283;  206.483;13844.450;-0.02601
 875.32;14993.617;  199.150;14344.450;-0.01949
 875.88;15369.617;  204.817;14722.117;-0.01895
 876.44;15668.617;  218.150;15059.450;-0.01747
 877.00;16021.283;  218.150;15358.117;-0.01862
 877.56;16331.950;  215.483;15696.450;-0.01747
 878.12;16672.283;  204.483;16104.450;-0.01524
 878.68;16983.617;  211.817;16344.450;-0.01687
 879.23;17199.950;  207.150;16637.783;-0.01461
 879.79;17458.950;  220.483;16875.783;-0.01495
 880.35;17662.283;  205.150;17127.117;-0.01352
 880.91;18003.617;  192.150;17367.783;-0.01579
 881.47;18193.950;  175.817;17611.783;-0.01426
 882.03;18506.950;  191.483;17929.783;-0.01391
 882.59;18746.617;  204.150;18199.450;-0.01301
 883.14;19033.617;  217.150;18423.117;-0.01432
 883.70;19205.617;  220.150;18492.117;-0.01664
 884.26;19354.617;  217.483;18606.117;-0.01733
 884.82;19445.617;  200.150;18627.783;-0.01886
 885.38;19395.950;  184.483;18693.783;-0.01617
 885.94;19416.283;  186.817;18692.783;-0.01666
 886.49;19402.950;  200.150;18759.783;-0.01480
 887.05;19377.617;  192.817;18819.450;-0.01282
 887.61;19270.950;  182.817;18766.450;-0.01163
 888.17;19132.283;  175.817;18655.450;-0.01106
 888.73;19063.617;  189.483;18492.450;-0.01335
 889.28;18890.283;  190.150;18251.117;-0.01510
 889.84;18751.617;  191.817;18020.450;-0.01746
 890.40;18564.283;  194.817;17792.450;-0.01864
 890.96;18389.617;  199.483;17628.450;-0.01856
 891.51;18177.950;  189.483;17470.117;-0.01743
 892.07;17883.950;  183.817;17244.117;-0.01599
 892.63;17745.283;  190.483;17036.783;-0.01789
 893.19;17595.617;  200.817;16880.117;-0.01824
 893.74;17502.283;  215.150;16772.783;-0.01872
 894.30;17251.283;  206.150;16671.450;-0.01503
 894.86;17138.283;  185.150;16510.450;-0.01639
 895.42;17072.950;  176.483;16397.450;-0.01772
 895.97;17107.283;  175.150;16362.450;-0.01954
 896.53;17058.617;  203.817;16299.450;-0.02002
 897.09;17027.283;  212.817;16258.117;-0.02034
 897.65;16869.617;  225.483;16079.783;-0.02111
 898.20;16744.283;  228.483;15994.117;-0.02019
 898.76;16587.283;  215.150;15888.117;-0.01895
 899.32;16480.950;  215.483;15824.450;-0.01789
 899.87;16355.950;  206.483;15765.117;-0.01619
 900.43;16214.617;  206.150;15631.783;-0.01611
 900.99;16037.950;  194.483;15508.450;-0.01476
 901.54;15896.617;  181.150;15319.450;-0.01625
 902.10;15696.617;  193.150;15133.117;-0.01608
 902.66;15539.283;  208.483;14918.117;-0.01796
 903.21;15348.617;  221.817;14754.117;-0.01741
 903.77;15222.283;  229.483;14588.450;-0.01876
 904.33;15092.950;  209.483;14443.783;-0.01937
 904.88;14964.950;  198.150;14329.783;-0.01909
 905.44;14883.617;  177.150;14293.450;-0.01779
 906.00;14830.950;  191.150;14324.117;-0.01530
 906.55;14673.283;  207.483;14294.117;-0.01154
 907.11;14586.617;  214.150;14239.117;-0.01063
 907.67;14407.950;  205.817;14016.117;-0.01215
 908.22;14355.283;  196.150;13855.783;-0.01560
 908.78;14190.283;  187.817;13715.783;-0.01497
 909.33;14106.950;  195.483;13616.783;-0.01558
 909.89;14035.617;  192.150;13488.783;-0.01750
 910.45;13910.950;  201.150;13406.783;-0.01627
 911.00;13817.950;  191.483;13362.117;-0.01478
 911.56;13699.283;  203.817;13272.117;-0.01397
 912.12;13586.950;  208.483;13101.117;-0.01606
 912.67;13471.283;  221.483;12951.117;-0.01739
 913.23;13309.617;  194.150;12807.450;-0.01696
 913.78;13153.950;  178.483;12651.783;-0.01714
 914.34;13076.617;  201.483;12642.117;-0.01491
 914.89;12969.283;  216.483;12543.117;-0.01476
 915.45;12914.617;  227.150;12558.117;-0.01238
 916.01;12738.950;  195.483;12386.117;-0.01239
 916.56;12773.617;  201.483;12282.450;-0.01731
 917.12;12630.950;  196.817;12063.117;-0.02030
 917.67;12547.950;  195.483;11981.117;-0.02040
 918.23;12364.617;  182.817;11944.450;-0.01524
 918.78;12342.950;  186.483;11927.117;-0.01512
 919.34;12206.950;  188.817;11843.783;-0.01333
 919.89;12023.617;  199.150;11694.117;-0.01227
 920.45;11849.950;  185.817;11531.783;-0.01201
 921.00;11765.617;  168.817;11330.783;-0.01660
 921.56;11651.617;  176.150;11296.783;-0.01364
 922.11;11552.950;  175.150;11154.450;-0.01548
 922.67;11425.950;  202.483;11048.450;-0.01486
 923.22;11308.283;  191.150;10815.450;-0.01969
 923.78;11151.617;  202.817;10632.117;-0.02111
 924.33;11033.283;  195.817;10497.117;-0.02204
 924.89;10823.283;  196.483;10361.117;-0.01931
 925.44;10663.617;  204.817;10248.117;-0.01761
 926.00;10456.950;  201.150;10018.783;-0.01896
 926.55;10345.283;  205.150; 9867.117;-0.02098
 927.11;10241.617;  188.150; 9720.450;-0.02312
 927.66;10195.283;  177.817; 9717.117;-0.02124
 928.22;10146.283;  174.483; 9670.783;-0.02122
 928.77;10046.950;  190.150; 9636.117;-0.01849
 929.33;10036.283;  204.150; 9587.783;-0.02028
 929.88; 9982.950;  205.150; 9516.450;-0.02123
 930.43; 9983.617;  182.483; 9493.450;-0.02228
 930.99; 9929.950;  174.817; 9470.117;-0.02097
 931.54; 9940.283;  167.150; 9456.783;-0.02204
 932.10; 9956.283;  190.150; 9473.117;-0.02204
 932.65; 9932.950;  197.150; 9480.117;-0.02068
 933.21; 9907.283;  198.483; 9496.450;-0.01878
 933.76; 9885.950;  187.483; 9472.117;-0.01894
 934.31; 9854.950;  183.150; 9454.117;-0.01838
 934.87; 9899.617;  190.150; 9433.783;-0.02135
 935.42; 9974.617;  199.483; 9431.450;-0.02483
 935.98; 9905.950;  195.483; 9388.450;-0.02378
 936.53; 9865.950;  193.817; 9335.450;-0.02450
 937.08; 9741.617;  191.150; 9347.783;-0.01829
 937.64; 9782.617;  197.817; 9356.783;-0.01974
 938.19; 9703.617;  196.483; 9425.117;-0.01291
 938.74; 9695.950;  199.817; 9340.117;-0.01659
 939.30; 9620.617;  187.150; 9339.783;-0.01313
 939.85; 9578.950;  186.483; 9209.783;-0.01741
 940.40; 9532.950;  173.817; 9251.783;-0.01325
 940.96; 9556.617;  187.150; 9238.450;-0.01500
 941.51; 9606.283;  189.483; 9244.783;-0.01700
 942.06; 9584.617;  197.150; 9160.450;-0.02008
 942.62; 9507.283;  184.817; 9036.783;-0.02249
 943.17; 9370.950;  195.150; 8966.450;-0.01958
 943.72; 9267.283;  180.483; 8903.117;-0.01776
 944.28; 9198.617;  199.483; 8795.117;-0.01992
 944.83; 9127.617;  184.150; 8766.783;-0.01789
 945.38; 9152.283;  194.483; 8735.117;-0.02071
 945.94; 9148.283;  186.483; 8804.450;-0.01699
 946.49; 9166.617;  205.150; 8772.783;-0.01952
 947.04; 9098.283;  208.817; 8738.117;-0.01796
 947.60; 9038.617;  215.150; 8638.117;-0.02017
 948.15; 8984.283;  203.483; 8519.117;-0.02364
 948.70; 8871.617;  212.817; 8413.783;-0.02359
 949.25; 8746.283;  206.150; 8325.117;-0.02196
 949.81; 8605.283;  208.817; 8271.117;-0.01764
 950.36; 8480.283;  198.483; 8157.117;-0.01729
 950.91; 8381.617;  207.150; 8037.783;-0.01866
 951.46; 8175.950;  203.817; 7873.117;-0.01682
 952.02; 8061.950;  207.150; 7734.117;-0.01852
 952.57; 7888.950;  207.150; 7606.450;-0.01627
 953.12; 7844.617;  218.483; 7526.117;-0.01853
 953.67; 7713.950;  218.150; 7443.783;-0.01594
 954.23; 7624.283;  215.817; 7359.450;-0.01581
 954.78; 7509.283;  208.150; 7234.450;-0.01666
 955.33; 7378.617;  218.150; 7119.783;-0.01599
 955.88; 7234.617;  217.150; 6980.117;-0.01604
 956.44; 7119.283;  230.483; 6838.450;-0.01808
 956.99; 7059.950;  228.817; 6737.117;-0.02103
 957.54; 7001.617;  223.817; 6672.783;-0.02160
 958.09; 6976.950;  222.150; 6636.783;-0.02244
 958.64; 6912.283;  206.817; 6607.450;-0.02021
 959.20; 6885.283;  203.483; 6532.450;-0.02356
 959.75; 6857.617;  199.817; 6496.450;-0.02422
 960.30; 6822.950;  218.150; 6441.783;-0.02582
 960.85; 6789.950;  225.150; 6424.450;-0.02488
 961.40; 6742.950;  228.817; 6381.117;-0.02482
 961.95; 6712.950;  231.817; 6360.783;-0.02426
 962.51; 6695.283;  239.483; 6360.117;-0.02315
 963.06; 6681.950;  242.817; 6380.117;-0.02085
 963.61; 6691.283;  234.150; 6314.783;-0.02609
 964.16; 6678.283;  235.150; 6258.450;-0.02926
 964.71; 6653.950;  222.483; 6212.117;-0.03091
 965.26; 6698.617;  213.150; 6253.117;-0.03091
 965.81; 6712.617;  210.817; 6289.117;-0.02925
 966.36; 6724.617;  208.483; 6323.783;-0.02757
 966.92; 6681.283;  216.150; 6305.117;-0.02603
 967.47; 6675.950;  218.483; 6338.117;-0.02334
 968.02; 6688.283;  232.483; 6354.117;-0.02308
 968.57; 6700.617;  234.817; 6375.450;-0.02241
 969.12; 6758.617;  219.817; 6368.783;-0.02670
 969.67; 6786.283;  204.483; 6420.783;-0.02481
 970.22; 6836.950;  194.150; 6469.783;-0.02469
 970.77; 6926.283;  199.817; 6539.117;-0.02575
 971.32; 7015.617;  197.483; 6593.117;-0.02778
 971.87; 7116.617;  198.817; 6693.117;-0.02744
 972.42; 7138.617;  215.150; 6793.117;-0.02223
 972.98; 7182.617;  220.817; 6908.783;-0.01743
 973.53; 7246.617;  231.483; 6996.117;-0.01579
 974.08; 7388.617;  215.483; 7040.450;-0.02161
 974.63; 7501.950;  223.483; 7078.450;-0.02603
 975.18; 7617.617;  218.483; 7103.117;-0.03130
 975.73; 7631.617;  224.817; 7157.450;-0.02873
 976.28; 7655.617;  221.483; 7219.117;-0.02628
 976.83; 7608.617;  221.483; 7315.450;-0.01759
 977.38; 7635.950;  219.483; 7373.783;-0.01563
 977.93; 7668.950;  222.150; 7387.450;-0.01674
 978.48; 7705.283;  228.483; 7365.783;-0.02018
 979.03; 7707.950;  234.817; 7358.117;-0.02082
 979.58; 7735.283;  221.483; 7329.117;-0.02413
 980.13; 7745.617;  207.150; 7367.783;-0.02233
 980.68; 7716.617;  186.483; 7310.450;-0.02408
 981.23; 7629.283;  185.817; 7278.117;-0.02099
 981.78; 7625.283;  207.150; 7207.450;-0.02518
 982.33; 7620.283;  219.150; 7257.117;-0.02185
 982.88; 7643.617;  232.483; 7211.783;-0.02607
 983.43; 7573.283;  218.150; 7145.783;-0.02601
 983.98; 7484.950;  215.150; 6984.117;-0.03100
 984.53; 7377.617;  203.817; 6873.450;-0.03165
 985.08; 7258.950;  209.817; 6835.783;-0.02689
 985.63; 7179.283;  211.150; 6787.117;-0.02516
 986.18; 7087.283;  218.817; 6756.783;-0.02142
 986.73; 7011.283;  218.483; 6610.450;-0.02641
 987.27; 6950.283;  227.483; 6521.117;-0.02865
 987.82; 6867.617;  238.483; 6431.783;-0.02953
 988.37; 6810.283;  243.150; 6400.783;-0.02796
 988.92; 6708.283;  234.150; 6351.117;-0.02465
 989.47; 6657.617;  214.483; 6285.117;-0.02586
 990.02; 6580.617;  208.483; 6199.117;-0.02681
 990.57; 6485.950;  208.150; 6083.117;-0.02880
 991.12; 6331.950;  215.150; 6044.450;-0.02091
 991.67; 6242.950;  213.817; 5969.117;-0.02019
 992.22; 6197.617;  200.483; 5915.450;-0.02093
 992.77; 6148.617;  200.150; 5802.450;-0.02604
 993.31; 6093.950;  204.817; 5735.783;-0.02725
 993.86; 5998.283;  230.483; 5683.783;-0.02435
 994.41; 5917.617;  235.150; 5580.117;-0.02659
 994.96; 5749.617;  226.483; 5473.117;-0.02230
 995.51; 5618.617;  218.817; 5377.783;-0.01981
 996.06; 5470.617;  208.483; 5293.783;-0.01485
 996.61; 5387.950;  222.483; 5201.783;-0.01594
 997.15; 5318.950;  236.150; 5083.450;-0.02060
 997.70; 5242.950;  241.150; 4965.117;-0.02482
 998.25; 5107.617;  247.483; 4873.450;-0.02145
 998.80; 4940.950;  248.483; 4740.117;-0.01900
 999.35; 4810.950;  249.483; 4623.450;-0.01823
 999.90; 4672.283;  236.150; 4455.117;-0.02180
1000.44; 4504.283;  224.483; 4340.450;-0.01695
1000.99; 4367.283;  232.483; 4190.783;-0.01895
1001.54; 4201.950;  237.150; 4067.450;-0.01499
1002.09; 4116.950;  231.817; 3939.117;-0.02035
1002.64; 3978.950;  238.483; 3855.450;-0.01458
1003.18; 3951.617;  240.483; 3766.783;-0.02219
1003.73; 3869.617;  238.483; 3661.450;-0.02564
1004.28; 3798.950;  226.817; 3584.450;-0.02689
1004.83; 3671.950;  209.483; 3488.117;-0.02369
1005.38; 3588.283;  210.150; 3420.783;-0.02209
1005.92; 3517.283;  219.150; 3321.783;-0.02654
1006.47; 3441.617;  236.817; 3231.783;-0.02941
1007.02; 3330.950;  235.483; 3140.117;-0.02763
1007.57; 3240.283;  222.817; 3087.450;-0.02257
1008.11; 3174.283;  211.817; 3028.450;-0.02192
1008.66; 3120.950;  205.150; 2973.450;-0.02254
1009.21; 3010.283;  192.483; 2907.783;-0.01609
1009.75; 2946.283;  177.817; 2862.117;-0.01341
1010.30; 2865.617;  170.150; 2793.117;-0.01184
1010.85; 2851.283;  176.817; 2712.783;-0.02309
1011.40; 2774.617;  204.150; 2628.450;-0.02543
1011.94; 2685.950;  221.817; 2545.783;-0.02543
1012.49; 2612.617;  216.483; 2464.450;-0.02772
1013.04; 2510.283;  194.150; 2362.117;-0.02871
1013.58; 2438.283;  184.150; 2325.117;-0.02237
1014.13; 2325.283;  188.483; 2268.117;-0.01178
1014.68; 2262.283;  196.483; 2233.450;-0.00610
1015.23; 2224.283;  203.150; 2181.450;-0.00930
1015.77; 2180.617;  199.817; 2113.117;-0.01506
1016.32; 2178.617;  204.817; 2072.450;-0.02401
1016.87; 2146.950;  209.483; 2012.783;-0.03117
1017.41; 2099.283;  206.817; 1977.450;-0.02890
1017.96; 2050.950;  194.817; 1953.450;-0.02343
1018.50; 1981.617;  186.483; 1926.450;-0.01356
1019.05; 1927.283;  188.483; 1903.450;-0.00599
1019.60; 1871.617;  182.817; 1815.783;-0.01460
1020.14; 1847.283;  196.150; 1752.783;-0.02560
1020.69; 1813.950;  196.150; 1698.117;-0.03226
1021.24; 1751.283;  209.483; 1650.450;-0.02937
1021.78; 1697.283;  188.483; 1620.450;-0.02270
1022.33; 1653.950;  190.150; 1592.450;-0.01864
1022.87; 1609.617;  182.817; 1587.783;-0.00670
1023.42; 1562.283;  198.150; 1567.117; 0.00154
1023.97; 1539.617;  200.150; 1516.117;-0.00769
1024.51; 1518.617;  212.150; 1465.117;-0.01816
1025.06; 1475.617;  200.483; 1401.117;-0.02615
1025.60; 1450.950;  198.817; 1340.783;-0.04000
1026.15; 1417.950;  181.150; 1307.783;-0.04052
1026.70; 1405.950;  185.483; 1284.783;-0.04541
1027.24; 1355.950;  195.483; 1279.783;-0.02948
1027.79; 1321.950;  200.483; 1270.450;-0.02042
1028.33; 1280.950;  197.483; 1252.450;-0.01158
1028.88; 1252.617;  188.817; 1215.450;-0.01544
1029.42; 1230.617;  208.150; 1198.450;-0.01388
1029.97; 1209.617;  197.817; 1156.450;-0.02344
1030.51; 1186.617;  190.150; 1127.117;-0.02674
1031.06; 1161.950;  182.817; 1088.783;-0.03373
1031.61; 1139.283;  192.483; 1063.117;-0.03642
1032.15; 1122.283;  210.150; 1050.450;-0.03562
1032.70; 1109.283;  202.817; 1024.117;-0.04285
1033.24; 1094.950;  206.483; 1018.117;-0.03928
1033.79; 1105.950;  200.817; 1020.450;-0.04309
1034.33; 1090.617;  199.817; 1016.450;-0.03775
1034.88; 1076.950;  201.817; 1008.783;-0.03522
1035.42; 1035.617;  202.817;  979.450;-0.03032
1035.97; 1014.950;  204.483;  950.450;-0.03602
1036.51;  994.950;  206.483;  931.450;-0.03647
1037.06; 1005.950;  200.817;  944.117;-0.03470
1037.60; 1003.950;  207.150;  948.783;-0.03116
1038.14; 1007.283;  204.150;  928.783;-0.04467
1038.69;  998.283;  222.150;  927.783;-0.04136
1039.23;  995.617;  234.483;  935.783;-0.03556
1039.78;  983.950;  235.150;  948.783;-0.02089
1040.32;  934.283;  224.483;  915.783;-0.01147
1040.87;  921.283;  208.483;  887.117;-0.02133
1041.41;  922.617;  198.150;  864.117;-0.03657
1041.96;  941.950;  200.817;  882.783;-0.03613
1042.50;  919.950;  197.817;  893.117;-0.01645
1043.04;  917.283;  213.817;  899.117;-0.01136
1043.59;  948.950;  217.150;  867.450;-0.05128
1044.13;  972.950;  212.483;  869.450;-0.06354
1044.68;  954.617;  205.817;  862.117;-0.05726
1045.22;  906.283;  199.150;  873.783;-0.02043
1045.76;  905.617;  201.817;  869.450;-0.02291
1046.31;  878.617;  193.483;  861.783;-0.01080
1046.85;  863.950;  200.483;  842.117;-0.01453
1047.40;  834.950;  202.483;  813.783;-0.01478
1047.94;  828.283;  215.150;  808.783;-0.01404
1048.48;  847.283;  211.150;  810.117;-0.02615
1049.03;  836.950;  214.483;  793.450;-0.03146
1049.57;  862.283;  229.150;  787.117;-0.05489
1050.11;  837.617;  222.817;  774.117;-0.04735
1050.66;  826.283;  218.483;  779.117;-0.03508
1051.20;  817.617;  206.483;  794.450;-0.01678
1051.74;  803.283;  200.817;  788.117;-0.01107
1052.29;  791.283;  200.150;  780.783;-0.00778
1052.83;  767.617;  199.150;  748.117;-0.01516
1053.37;  783.950;  224.817;  744.783;-0.03154
1053.92;  783.617;  234.150;  739.783;-0.03611
1054.46;  785.283;  236.483;  734.117;-0.04250
1055.00;  785.283;  231.483;  739.117;-0.03780
1055.55;  776.950;  230.817;  738.117;-0.03203
1056.09;  765.617;  223.817;  747.783;-0.01454
1056.63;  743.283;  215.817;  711.783;-0.02674
1057.17;  743.950;  216.483;  709.117;-0.02967
1057.72;  737.950;  225.150;  697.450;-0.03573
1058.26;  725.950;  223.483;  705.783;-0.01779
1058.80;  716.950;  229.817;  700.450;-0.01497
1059.35;  695.950;  230.483;  686.450;-0.00896
1059.89;  699.617;  230.150;  672.450;-0.02589
1060.43;  695.283;  227.817;  654.783;-0.03936
1060.97;  681.283;  223.817;  667.117;-0.01366
1061.52;  669.283;  231.150;  682.450; 0.01286
1062.06;  666.283;  231.483;  671.450; 0.00513
1062.60;  662.617;  236.483;  658.450;-0.00427
1063.14;  664.617;  232.483;  640.783;-0.02464
1063.69;  641.617;  216.483;  640.117;-0.00154
1064.23;  646.283;  208.817;  619.783;-0.02714
1064.77;  631.283;  200.483;  598.450;-0.03443
1065.31;  623.950;  201.817;  577.450;-0.05069
1065.85;  625.617;  206.483;  567.117;-0.06529
1066.40;  624.950;  205.150;  579.450;-0.04982
1066.94;  641.283;  217.817;  579.117;-0.06895
1067.48;  628.617;  209.150;  587.783;-0.04448
1068.02;  632.283;  233.817;  562.450;-0.08368
1068.56;  604.617;  216.817;  564.783;-0.04707
1069.10;  586.950;  212.817;  549.783;-0.04544
1069.65;  554.950;  195.817;  566.450; 0.01369
1070.19;  574.617;  208.817;  566.783;-0.00940
1070.73;  592.283;  223.817;  582.783;-0.01134
1071.27;  586.617;  215.817;  567.117;-0.02346
1071.81;  546.950;  207.150;  562.117; 0.01896
1072.35;  550.950;  201.817;  549.117;-0.00229
1072.90;  555.283;  197.150;  546.783;-0.01043
1073.44;  566.950;  202.817;  540.117;-0.03324
1073.98;  546.283;  206.150;  531.450;-0.01937
1074.52;  558.617;  224.483;  538.783;-0.02658
1075.06;  577.950;  218.483;  542.450;-0.04516
1075.60;  569.283;  207.483;  531.450;-0.04797
1076.14;  560.950;  204.817;  514.117;-0.06123
1076.68;  527.950;  207.150;  504.450;-0.03304
1077.22;  522.283;  225.817;  504.783;-0.02642
1077.76;  515.283;  214.817;  498.117;-0.02555
1078.31;  521.617;  229.817;  499.783;-0.03378
1078.85;  529.950;  226.483;  517.117;-0.01877
1079.39;  520.950;  243.817;  525.450; 0.00700
1079.93;  509.950;  237.817;  507.783;-0.00347
1080.47;  499.950;  227.483;  476.450;-0.03917
1081.01;  502.283;  216.150;  474.783;-0.04388
1081.55;  520.617;  208.483;  488.783;-0.04672
1082.09;  528.617;  205.817;  488.783;-0.05720
1082.63;  536.617;  210.150;  496.450;-0.05702
1083.17;  521.617;  221.150;  500.783;-0.03121
1083.71;  518.950;  228.817;  501.450;-0.02702
1084.25;  501.283;  224.483;  471.117;-0.05011
1084.79;  495.950;  214.483;  446.450;-0.08400
1085.33;  487.950;  202.817;  450.783;-0.06065
1085.87;  479.283;  199.483;  468.450;-0.01715
1086.41;  489.283;  214.483;  471.450;-0.02914
1086.95;  496.283;  222.150;  467.117;-0.04885
1087.49;  502.950;  225.817;  454.783;-0.08292
1088.03;  490.950;  216.817;  454.117;-0.06266
1088.57;  477.283;  219.817;  450.783;-0.04717
1089.11;  460.950;  222.150;  448.117;-0.02399
1089.65;  474.950;  233.150;  458.783;-0.03005
1090.19;  470.950;  238.483;  468.117;-0.00533
1090.73;  481.617;  240.483;  471.783;-0.01808
1091.27;  477.617;  238.817;  466.117;-0.02143
1091.81;  482.283;  238.483;  458.117;-0.04534
1092.35;  487.950;  247.483;  461.450;-0.05071
1092.89;  471.950;  232.150;  457.450;-0.02709
1093.43;  472.617;  223.817;  445.783;-0.04956
1093.97;  453.283;  210.150;  441.117;-0.02230
1094.51;  446.950;  208.483;  440.450;-0.01200
1095.04;  440.950;  218.483;  442.783; 0.00356
1095.58;  452.950;  238.817;  436.783;-0.03409
1096.12;  455.950;  242.817;  428.783;-0.05922
1096.66;  454.950;  239.817;  430.450;-0.05251
1097.20;  450.950;  235.817;  449.450;-0.00304
1097.74;  459.283;  246.817;  456.783;-0.00514
1098.28;  442.617;  235.817;  457.117; 0.02943
1098.82;  447.617;  230.483;  453.117; 0.01086
1099.36;  436.283;  228.150;  446.450; 0.02071
1099.89;  455.617;  230.150;  447.450;-0.01602

